EEG.AF3,EEG.F7,EEG.F3,EEG.FC5,EEG.T7,EEG.P7,EEG.O1,EEG.O2,EEG.P8,EEG.T8,EEG.FC6,EEG.F4,EEG.F8,EEG.AF4
4291.538574,4331.025879,4294.871582,4337.692383,4351.282227,4284.615234,4288.333496,4269.102539,4212.94873,4213.717773,4355.128418,4369.102539,4314.743652,4355.256348
4294.871582,4330.128418,4300.897461,4339.615234,4351.410156,4281.794922,4288.846191,4265.128418,4210.384766,4212.692383,4360,4375.384766,4316.153809,4359.615234
4295,4308.461426,4302.94873,4328.974121,4350.641113,4284.230957,4289.871582,4272.94873,4215.256348,4216.538574,4364.615234,4385.512695,4315.128418,4363.205078
4296.025879,4307.307617,4301.410156,4325.128418,4349.871582,4278.974121,4278.974121,4267.307617,4216.282227,4215.512695,4369.871582,4384.358887,4322.179688,4368.333496
4307.179688,4332.05127,4310.384766,4335.256348,4351.922852,4277.179688,4273.846191,4259.487305,4213.717773,4213.717773,4380.256348,4387.05127,4334.230957,4381.410156
4313.717773,4328.846191,4316.922852,4329.487305,4347.179688,4280,4281.538574,4271.922852,4221.922852,4223.205078,4384.743652,4395.641113,4333.077148,4389.230957
4311.282227,4312.307617,4312.05127,4312.05127,4344.358887,4281.153809,4286.025879,4282.820313,4233.205078,4232.307617,4381.538574,4398.717773,4323.461426,4389.102539
4316.153809,4322.179688,4315.512695,4313.589844,4349.743652,4287.307617,4288.461426,4281.538574,4236.410156,4233.846191,4386.410156,4404.102539,4326.666504,4396.282227
4325.769043,4329.615234,4326.666504,4323.589844,4352.179688,4296.282227,4293.974121,4288.846191,4236.538574,4233.077148,4386.410156,4406.922852,4331.282227,4401.538574
4325,4321.922852,4328.461426,4321.025879,4353.333496,4299.230957,4298.077148,4296.794922,4235.897461,4228.461426,4375.769043,4400.256348,4321.282227,4395.384766
4321.538574,4321.666504,4325.512695,4319.487305,4357.563965,4300,4298.717773,4289.487305,4233.717773,4220.897461,4372.692383,4396.410156,4311.538574,4393.589844
4320.897461,4322.05127,4322.94873,4323.717773,4357.692383,4299.102539,4293.589844,4277.307617,4232.05127,4218.461426,4369.102539,4391.538574,4310.384766,4391.922852
4314.871582,4321.282227,4316.538574,4326.538574,4359.230957,4295.256348,4286.922852,4274.487305,4227.05127,4219.615234,4365.897461,4381.153809,4309.358887,4382.692383
4309.743652,4322.307617,4313.205078,4330.384766,4366.538574,4296.538574,4290.897461,4275.897461,4220.512695,4215.897461,4371.538574,4380.769043,4303.717773,4377.179688
4318.461426,4329.615234,4318.589844,4339.487305,4367.179688,4296.922852,4290.769043,4273.589844,4217.94873,4216.282227,4373.846191,4386.794922,4304.743652,4384.358887
4326.922852,4337.436035,4321.666504,4347.307617,4364.743652,4291.794922,4283.461426,4269.871582,4216.282227,4216.282227,4367.692383,4385.512695,4309.615234,4391.025879
4313.846191,4324.615234,4317.436035,4343.589844,4368.461426,4296.794922,4293.589844,4277.692383,4223.461426,4211.666504,4366.666504,4384.743652,4301.666504,4381.282227
4305.512695,4318.589844,4313.846191,4339.743652,4369.487305,4303.589844,4310.384766,4292.436035,4235.769043,4222.820313,4388.077148,4389.743652,4315.897461,4378.461426
4321.538574,4330.641113,4317.179688,4341.922852,4362.563965,4296.025879,4301.282227,4295.512695,4235.384766,4237.436035,4412.05127,4391.922852,4357.05127,4394.102539
4332.94873,4325.384766,4320.256348,4338.333496,4358.974121,4292.94873,4291.153809,4293.589844,4236.282227,4235.897461,4418.205078,4391.153809,4381.538574,4404.358887
4321.538574,4300.897461,4316.922852,4325.256348,4358.974121,4298.205078,4296.410156,4292.436035,4246.538574,4236.538574,4420.769043,4388.589844,4387.307617,4398.461426
4309.743652,4276.922852,4308.077148,4305,4350.256348,4294.615234,4294.615234,4290.641113,4249.230957,4245,4432.179688,4384.358887,4403.461426,4395.512695
4307.563965,4259.487305,4299.615234,4291.666504,4344.358887,4297.179688,4295.384766,4294.615234,4247.692383,4250,4435.769043,4385.512695,4405.769043,4395.641113
4303.589844,4262.05127,4298.461426,4297.307617,4352.820313,4308.077148,4307.179688,4297.94873,4249.358887,4252.820313,4424.358887,4388.077148,4376.410156,4386.666504
4306.666504,4278.717773,4303.846191,4312.05127,4356.538574,4304.487305,4309.615234,4294.487305,4248.717773,4246.025879,4413.205078,4383.589844,4377.05127,4386.282227
4311.922852,4277.563965,4307.692383,4311.794922,4348.205078,4298.461426,4303.589844,4290.769043,4246.025879,4233.205078,4410.384766,4381.025879,4400.256348,4393.589844
4304.230957,4262.307617,4304.615234,4297.94873,4337.05127,4292.94873,4298.461426,4286.282227,4240.641113,4232.563965,4414.743652,4380.769043,4385.512695,4388.589844
4298.461426,4257.820313,4301.538574,4294.230957,4332.692383,4279.871582,4292.179688,4278.974121,4232.563965,4227.692383,4408.846191,4371.025879,4357.692383,4378.974121
4309.102539,4270.769043,4307.05127,4310.128418,4342.307617,4282.563965,4293.974121,4281.538574,4232.692383,4220.384766,4396.794922,4364.230957,4361.922852,4381.922852
4322.05127,4289.615234,4316.282227,4329.743652,4353.717773,4297.05127,4304.358887,4290.512695,4237.94873,4231.410156,4398.461426,4368.333496,4370.384766,4388.589844
4320.256348,4296.666504,4318.333496,4332.563965,4354.615234,4296.153809,4303.589844,4287.94873,4237.820313,4231.922852,4395.128418,4367.307617,4357.307617,4385.128418
4316.410156,4293.717773,4311.410156,4326.922852,4355.641113,4293.846191,4301.538574,4278.846191,4233.077148,4216.538574,4388.589844,4360.897461,4355.512695,4384.871582
4320.384766,4294.871582,4310.897461,4327.94873,4361.538574,4300.769043,4307.820313,4284.102539,4231.410156,4221.410156,4402.94873,4364.487305,4368.333496,4390.769043
4324.358887,4299.871582,4315.512695,4329.743652,4361.282227,4299.230957,4307.563965,4295.256348,4240.641113,4235.384766,4419.871582,4374.358887,4376.025879,4396.922852
4320.384766,4294.743652,4311.410156,4325.769043,4356.410156,4293.974121,4298.717773,4288.589844,4245.769043,4234.615234,4413.461426,4374.487305,4376.025879,4396.666504
4313.205078,4286.794922,4307.94873,4322.179688,4356.794922,4294.102539,4289.743652,4277.307617,4235.256348,4232.563965,4403.589844,4371.922852,4373.717773,4388.461426
4315.384766,4299.615234,4311.922852,4329.230957,4358.589844,4289.102539,4284.743652,4275.769043,4231.922852,4233.333496,4405.512695,4373.717773,4376.153809,4389.230957
4311.410156,4291.794922,4309.230957,4322.179688,4354.358887,4289.102539,4286.153809,4279.102539,4243.974121,4232.563965,4409.102539,4377.05127,4374.230957,4392.94873
4300.384766,4253.205078,4300.384766,4302.179688,4346.538574,4296.025879,4289.358887,4287.563965,4251.794922,4235.128418,4410.641113,4380.769043,4366.025879,4385.384766
4304.358887,4270.256348,4301.153809,4312.179688,4347.94873,4290.128418,4285.512695,4289.871582,4250.897461,4237.179688,4409.743652,4383.461426,4365.897461,4380.897461
4315.641113,4332.436035,4307.563965,4340.769043,4355.512695,4280.897461,4280.128418,4278.333496,4244.871582,4229.615234,4399.358887,4377.94873,4362.05127,4382.563965
4315.769043,4351.666504,4312.692383,4348.974121,4358.717773,4288.461426,4281.666504,4275.512695,4236.794922,4218.461426,4376.922852,4366.922852,4336.025879,4375.512695
4306.922852,4338.717773,4310.256348,4340.769043,4360.512695,4297.179688,4286.666504,4276.666504,4233.461426,4213.077148,4357.436035,4362.692383,4305.641113,4364.230957
4298.077148,4335.512695,4300.512695,4331.922852,4363.717773,4298.205078,4293.589844,4268.461426,4233.589844,4216.410156,4353.589844,4364.743652,4294.487305,4361.153809
4295.897461,4332.692383,4301.153809,4325.384766,4364.871582,4300.128418,4296.153809,4271.282227,4233.461426,4213.205078,4360.384766,4364.230957,4297.94873,4362.05127
4303.717773,4332.436035,4308.846191,4324.871582,4365.512695,4300.128418,4293.461426,4274.102539,4232.820313,4201.538574,4358.077148,4357.05127,4301.025879,4364.102539
4312.307617,4335.256348,4313.846191,4328.205078,4367.436035,4296.666504,4293.077148,4262.179688,4231.282227,4205.512695,4362.179688,4355.256348,4308.589844,4371.410156
4318.846191,4328.717773,4321.410156,4330.897461,4366.153809,4296.153809,4292.436035,4262.436035,4231.538574,4220.769043,4388.717773,4369.230957,4321.922852,4387.05127
4327.179688,4325.769043,4328.717773,4335.512695,4360.384766,4295.128418,4290.769043,4276.538574,4235.641113,4221.666504,4395.128418,4379.743652,4326.282227,4399.743652
4326.282227,4319.358887,4328.205078,4329.358887,4352.692383,4294.102539,4292.179688,4286.666504,4241.538574,4216.794922,4375.256348,4382.692383,4320.769043,4398.846191
4323.717773,4308.077148,4327.692383,4316.025879,4343.846191,4290.512695,4296.794922,4298.333496,4254.743652,4233.974121,4380.256348,4393.974121,4325.769043,4401.153809
4330.128418,4306.410156,4333.077148,4318.333496,4339.615234,4284.487305,4298.589844,4315.128418,4273.333496,4260.128418,4413.717773,4413.077148,4339.230957,4415.641113
4334.487305,4310.897461,4335.256348,4331.282227,4341.282227,4287.179688,4297.692383,4325.384766,4284.871582,4270,4427.563965,4422.179688,4349.743652,4424.102539
4325.384766,4309.102539,4322.94873,4333.589844,4338.461426,4294.487305,4297.05127,4322.179688,4284.743652,4269.102539,4411.794922,4412.692383,4350.256348,4412.436035
4306.153809,4299.871582,4302.563965,4322.436035,4331.410156,4294.487305,4294.230957,4315.641113,4282.307617,4267.820313,4399.358887,4397.820313,4336.410156,4395.641113
4298.717773,4296.538574,4300,4319.230957,4332.307617,4293.717773,4294.487305,4316.153809,4284.230957,4265.256348,4407.179688,4401.794922,4337.307617,4400.512695
4303.974121,4302.563965,4306.153809,4328.077148,4335.641113,4299.871582,4298.205078,4317.692383,4285.512695,4266.282227,4411.153809,4415.128418,4353.589844,4410
4300.641113,4308.589844,4296.666504,4336.922852,4333.461426,4302.307617,4295.512695,4309.102539,4278.974121,4266.410156,4392.05127,4406.025879,4342.820313,4393.846191
4293.205078,4309.743652,4287.94873,4344.102539,4335.256348,4299.487305,4291.922852,4297.820313,4265.897461,4253.333496,4380,4384.358887,4317.05127,4374.358887
4299.871582,4311.666504,4292.94873,4351.410156,4345,4303.461426,4302.820313,4293.717773,4260.384766,4246.153809,4393.974121,4383.333496,4321.282227,4383.333496
4316.025879,4330,4305.641113,4365.641113,4352.94873,4313.205078,4312.820313,4296.666504,4268.461426,4262.179688,4417.563965,4398.461426,4359.230957,4405.128418
4321.282227,4335.897461,4317.692383,4369.358887,4352.94873,4313.077148,4308.077148,4297.692383,4271.282227,4268.589844,4421.794922,4411.410156,4365.512695,4413.717773
4317.05127,4308.974121,4318.461426,4353.205078,4347.179688,4302.307617,4303.461426,4296.410156,4264.615234,4254.230957,4401.666504,4413.974121,4320.512695,4408.077148
4314.230957,4299.615234,4310.384766,4343.205078,4344.487305,4296.025879,4301.282227,4293.974121,4261.922852,4247.692383,4393.205078,4404.615234,4317.05127,4401.153809
4306.538574,4303.717773,4302.692383,4333.974121,4343.717773,4296.153809,4296.410156,4285.641113,4263.205078,4249.871582,4403.974121,4387.179688,4365.641113,4395.384766
4294.230957,4270.769043,4294.871582,4310.384766,4339.102539,4294.615234,4292.820313,4284.102539,4265.769043,4254.102539,4414.230957,4374.871582,4390.128418,4393.717773
4285.641113,4226.410156,4285.769043,4291.153809,4332.436035,4287.436035,4287.179688,4293.589844,4275,4268.333496,4423.077148,4377.692383,4396.025879,4396.666504
4280.384766,4213.077148,4280,4283.846191,4327.692383,4280.128418,4284.230957,4296.794922,4278.974121,4272.94873,4433.077148,4380.256348,4412.94873,4395.512695
4279.615234,4214.487305,4279.871582,4278.846191,4325.641113,4281.153809,4287.179688,4293.461426,4278.205078,4267.692383,4432.94873,4376.153809,4403.589844,4390.384766
4277.94873,4209.102539,4281.025879,4278.205078,4324.615234,4283.205078,4284.615234,4288.077148,4279.743652,4273.846191,4407.05127,4375,4372.436035,4383.333496
4269.487305,4201.282227,4275.512695,4276.922852,4324.487305,4280.769043,4278.333496,4280.384766,4272.307617,4273.846191,4379.487305,4369.230957,4372.820313,4376.922852
4262.820313,4195.384766,4266.666504,4270.384766,4324.102539,4280.897461,4282.820313,4279.487305,4265.641113,4261.794922,4402.179688,4364.358887,4392.563965,4380.128418
4264.615234,4199.871582,4266.282227,4276.153809,4325,4284.487305,4289.871582,4282.820313,4272.436035,4270.512695,4440.256348,4371.153809,4390.897461,4386.794922
4270.641113,4206.538574,4274.743652,4294.230957,4329.102539,4284.102539,4289.230957,4281.666504,4277.436035,4282.94873,4438.333496,4378.974121,4384.871582,4389.102539
4282.436035,4218.717773,4285.897461,4310.256348,4337.563965,4283.461426,4286.282227,4286.538574,4277.94873,4273.205078,4436.794922,4383.077148,4408.717773,4398.974121
4287.692383,4232.94873,4288.846191,4317.307617,4343.589844,4284.230957,4284.102539,4291.538574,4279.871582,4262.94873,4442.563965,4381.410156,4415.128418,4401.410156
4274.743652,4228.077148,4276.282227,4307.94873,4342.563965,4283.461426,4287.307617,4290.384766,4275.128418,4259.230957,4415.641113,4365.256348,4370.897461,4378.717773
4257.563965,4218.461426,4259.743652,4290.641113,4341.666504,4284.230957,4296.794922,4292.692383,4266.922852,4249.102539,4388.461426,4349.230957,4348.205078,4360
4246.282227,4212.307617,4245.897461,4278.717773,4339.743652,4284.102539,4295.641113,4291.538574,4265,4243.974121,4385.384766,4339.102539,4366.794922,4354.230957
4243.205078,4204.358887,4238.846191,4273.974121,4335.384766,4281.025879,4286.153809,4281.153809,4265.384766,4246.282227,4379.102539,4325.384766,4366.922852,4346.666504
4246.025879,4206.794922,4244.487305,4273.589844,4333.461426,4280.512695,4285.512695,4269.230957,4261.922852,4239.615234,4370.128418,4319.487305,4349.743652,4341.794922
4248.717773,4217.307617,4251.153809,4277.179688,4336.666504,4282.820313,4288.589844,4263.333496,4252.307617,4224.230957,4366.794922,4317.05127,4345.897461,4341.153809
4247.436035,4214.487305,4248.974121,4275.128418,4335.384766,4282.05127,4282.692383,4265.897461,4246.922852,4218.333496,4361.794922,4315,4337.179688,4334.230957
4245,4206.282227,4250.512695,4264.358887,4327.94873,4280.512695,4280.512695,4283.205078,4262.05127,4229.230957,4367.563965,4335.897461,4324.743652,4335.128418
4254.487305,4212.179688,4264.358887,4263.205078,4328.589844,4283.461426,4286.922852,4297.94873,4282.692383,4249.230957,4390.512695,4367.307617,4340.512695,4357.436035
4270,4216.538574,4276.153809,4273.077148,4333.717773,4282.436035,4281.794922,4287.692383,4280.384766,4259.487305,4405.769043,4369.871582,4364.743652,4376.153809
4281.666504,4218.717773,4287.436035,4286.025879,4336.025879,4275.641113,4272.94873,4277.563965,4272.692383,4263.077148,4413.205078,4368.717773,4367.820313,4384.615234
4302.307617,4241.410156,4312.179688,4314.230957,4349.615234,4281.410156,4278.077148,4285.897461,4282.05127,4272.05127,4437.692383,4396.153809,4382.563965,4408.589844
4324.102539,4266.282227,4330.897461,4341.410156,4367.94873,4293.333496,4285.512695,4285.641113,4284.871582,4277.05127,4456.666504,4411.666504,4403.846191,4431.538574
4322.436035,4263.717773,4327.436035,4339.358887,4363.974121,4288.589844,4283.077148,4268.461426,4269.358887,4269.743652,4441.538574,4400.384766,4390.897461,4424.230957
4313.846191,4255.384766,4325.512695,4328.589844,4353.974121,4280.641113,4279.230957,4261.794922,4259.358887,4257.179688,4422.94873,4393.205078,4373.205078,4417.05127
4320.128418,4261.922852,4333.589844,4329.358887,4364.871582,4289.615234,4283.205078,4266.025879,4262.179688,4249.743652,4420.512695,4397.05127,4381.153809,4426.538574
4322.179688,4260,4328.846191,4323.077148,4370.128418,4298.717773,4289.230957,4267.05127,4261.922852,4247.820313,4415.769043,4396.282227,4385.384766,4424.487305
4307.179688,4243.589844,4314.102539,4304.487305,4356.153809,4292.307617,4289.230957,4265.897461,4260.769043,4249.230957,4402.94873,4384.871582,4368.077148,4406.922852
4290.641113,4231.282227,4301.538574,4286.538574,4348.717773,4283.077148,4284.102539,4265.512695,4262.05127,4248.846191,4390.384766,4372.179688,4355.641113,4391.666504
4282.436035,4225.512695,4290.128418,4273.333496,4350.897461,4281.282227,4278.589844,4270.384766,4263.333496,4243.461426,4378.974121,4363.846191,4356.410156,4379.743652
4268.333496,4218.333496,4275.641113,4257.563965,4345.128418,4283.205078,4280.256348,4281.025879,4268.333496,4244.615234,4373.717773,4357.820313,4355.897461,4366.922852
4245.128418,4202.307617,4258.077148,4236.538574,4335.769043,4282.436035,4282.94873,4284.487305,4270.641113,4242.692383,4371.666504,4350,4340.512695,4351.025879
4230.512695,4184.743652,4244.743652,4225.384766,4333.717773,4280.897461,4281.025879,4275.641113,4264.743652,4233.461426,4365.384766,4342.436035,4314.487305,4330.641113
4222.307617,4187.05127,4236.666504,4228.333496,4327.05127,4281.025879,4279.487305,4273.461426,4260.769043,4226.538574,4358.077148,4332.307617,4308.846191,4318.077148
4214.871582,4190.769043,4236.153809,4228.205078,4317.820313,4278.077148,4282.563965,4287.563965,4268.589844,4226.666504,4369.358887,4329.743652,4327.563965,4319.358887
4218.333496,4175.897461,4246.282227,4224.102539,4319.743652,4275.256348,4283.077148,4301.538574,4281.666504,4235.256348,4392.179688,4349.102539,4337.563965,4324.743652
4228.205078,4170.897461,4261.025879,4231.666504,4324.743652,4276.794922,4284.230957,4303.717773,4289.871582,4252.05127,4401.922852,4371.153809,4336.410156,4332.563965
4237.820313,4192.692383,4271.282227,4250.384766,4328.974121,4281.025879,4291.025879,4305.384766,4297.692383,4270.128418,4414.487305,4380.384766,4352.307617,4345.897461
4252.563965,4212.05127,4281.538574,4268.717773,4335.512695,4281.282227,4290.641113,4305.384766,4305,4279.358887,4439.487305,4384.102539,4372.692383,4361.538574
4266.794922,4216.538574,4294.230957,4281.025879,4341.922852,4280.641113,4285.897461,4298.974121,4305.128418,4281.922852,4453.461426,4389.358887,4376.282227,4375.897461
4275.641113,4223.077148,4303.333496,4291.410156,4347.820313,4289.615234,4291.666504,4297.179688,4302.179688,4281.794922,4457.179688,4397.563965,4386.153809,4389.487305
4286.410156,4236.410156,4312.436035,4304.487305,4353.846191,4297.94873,4295.256348,4289.102539,4298.461426,4277.820313,4461.794922,4401.922852,4397.436035,4398.205078
4301.282227,4254.230957,4324.615234,4317.820313,4359.358887,4296.794922,4292.94873,4279.615234,4292.436035,4277.94873,4461.538574,4404.871582,4396.794922,4407.436035
4312.307617,4266.794922,4335.512695,4326.538574,4365.641113,4295.897461,4296.794922,4290.641113,4294.358887,4281.538574,4461.153809,4411.025879,4398.077148,4418.717773
4316.538574,4270.384766,4330.384766,4330.256348,4368.461426,4297.563965,4297.436035,4298.461426,4296.794922,4275.256348,4462.692383,4406.153809,4406.153809,4421.666504
4310.641113,4271.794922,4314.102539,4330.256348,4363.717773,4296.025879,4283.717773,4283.077148,4284.871582,4263.333496,4452.179688,4383.846191,4402.563965,4413.589844
4300.769043,4273.717773,4304.487305,4322.820313,4359.230957,4292.692383,4275.256348,4271.666504,4275.256348,4260.256348,4441.666504,4366.153809,4386.538574,4404.358887
4294.358887,4276.153809,4298.974121,4314.871582,4354.487305,4284.358887,4272.820313,4267.820313,4279.102539,4256.922852,4440,4360.128418,4382.820313,4397.94873
4292.563965,4276.666504,4293.589844,4315,4349.358887,4277.05127,4266.025879,4259.615234,4275.256348,4243.461426,4432.820313,4356.794922,4388.461426,4393.333496
4295,4276.153809,4296.025879,4318.461426,4348.077148,4277.05127,4263.846191,4266.922852,4266.282227,4235,4427.820313,4363.461426,4383.333496,4392.436035
4291.410156,4270.384766,4298.333496,4320.512695,4343.077148,4273.589844,4263.333496,4277.692383,4263.846191,4231.153809,4437.179688,4370.512695,4370.641113,4390.897461
4287.179688,4267.563965,4295.769043,4323.974121,4340.384766,4270.641113,4262.307617,4275.128418,4268.205078,4229.615234,4452.179688,4369.487305,4370.384766,4390.512695
4301.282227,4276.025879,4310,4333.333496,4350.641113,4281.666504,4275.512695,4288.589844,4288.333496,4249.230957,4472.94873,4384.487305,4392.820313,4406.410156
4318.077148,4282.436035,4332.179688,4345.256348,4360.128418,4293.717773,4290.384766,4313.333496,4313.333496,4281.410156,4501.410156,4408.846191,4413.205078,4428.846191
4316.666504,4281.025879,4332.436035,4348.717773,4361.922852,4294.358887,4288.589844,4317.692383,4317.692383,4292.563965,4508.333496,4410.897461,4412.436035,4433.846191
4313.974121,4283.077148,4324.487305,4345.769043,4365.512695,4293.333496,4286.282227,4309.230957,4311.410156,4288.205078,4494.871582,4401.538574,4412.179688,4432.436035
4327.436035,4293.846191,4336.153809,4351.410156,4368.077148,4297.05127,4296.666504,4306.922852,4312.94873,4291.794922,4500.384766,4406.794922,4429.487305,4442.820313
4338.974121,4298.589844,4351.538574,4362.820313,4366.282227,4299.102539,4297.179688,4301.282227,4310.128418,4293.974121,4513.205078,4410.384766,4435.384766,4452.692383
4336.922852,4296.282227,4349.230957,4361.794922,4366.794922,4297.436035,4284.102539,4281.922852,4292.692383,4281.666504,4500.384766,4396.025879,4422.436035,4449.102539
4330.384766,4294.743652,4337.820313,4349.871582,4368.205078,4295.384766,4279.102539,4266.282227,4280,4266.922852,4478.717773,4377.94873,4414.615234,4437.307617
4326.410156,4294.487305,4327.307617,4342.563965,4365,4293.461426,4279.358887,4265,4278.589844,4262.692383,4468.717773,4367.05127,4416.538574,4433.717773
4325.769043,4293.974121,4326.153809,4343.717773,4365.641113,4292.94873,4274.230957,4260.769043,4271.025879,4261.538574,4461.666504,4363.333496,4412.179688,4440.641113
4326.666504,4294.102539,4329.871582,4343.846191,4370.769043,4295.512695,4272.179688,4250.641113,4259.102539,4250.128418,4453.589844,4365,4398.077148,4441.025879
4326.538574,4296.794922,4325.512695,4337.692383,4370.128418,4297.05127,4277.563965,4254.358887,4266.794922,4247.307617,4454.615234,4366.666504,4399.230957,4436.666504
4320.512695,4289.871582,4317.820313,4330.128418,4363.461426,4295.128418,4280.128418,4272.307617,4287.307617,4263.974121,4463.077148,4368.589844,4417.179688,4435.897461
4311.538574,4276.153809,4315.384766,4324.743652,4359.871582,4296.025879,4278.333496,4287.307617,4299.487305,4278.974121,4475.384766,4377.94873,4418.461426,4434.487305
4307.94873,4276.153809,4313.077148,4323.589844,4356.025879,4292.820313,4278.461426,4295.897461,4301.410156,4275,4486.025879,4390.512695,4411.410156,4434.358887
4309.487305,4281.025879,4312.94873,4325.128418,4349.230957,4281.666504,4280.641113,4298.077148,4301.538574,4268.077148,4494.871582,4395.897461,4422.820313,4436.922852
4315,4276.538574,4320,4325.256348,4350,4279.102539,4282.436035,4296.794922,4304.230957,4272.692383,4503.461426,4395.769043,4431.922852,4442.820313
4326.153809,4282.94873,4330.128418,4336.282227,4361.538574,4289.743652,4285.256348,4300.897461,4312.692383,4285.769043,4509.230957,4401.153809,4430.512695,4454.743652
4334.615234,4301.538574,4339.743652,4353.333496,4371.538574,4298.077148,4290.641113,4299.871582,4315,4289.230957,4512.692383,4405,4434.358887,4459.102539
4332.436035,4298.333496,4337.179688,4353.461426,4371.153809,4296.025879,4288.589844,4288.205078,4302.563965,4280.512695,4502.820313,4392.820313,4427.94873,4444.871582
4322.820313,4282.179688,4324.871582,4342.307617,4368.461426,4296.538574,4285.384766,4278.205078,4293.974121,4282.692383,4480,4380.384766,4412.05127,4433.846191
4313.846191,4279.871582,4317.436035,4342.436035,4369.615234,4303.974121,4290.512695,4271.922852,4294.615234,4287.563965,4464.743652,4376.922852,4402.94873,4430.128418
4310.641113,4280.256348,4313.846191,4346.666504,4369.615234,4306.794922,4291.153809,4263.589844,4288.717773,4282.307617,4460.384766,4367.94873,4397.94873,4420.128418
4305.897461,4271.025879,4302.307617,4337.563965,4361.538574,4300.256348,4284.230957,4255.641113,4275.897461,4277.563965,4448.589844,4351.922852,4391.025879,4406.794922
4286.410156,4262.179688,4281.282227,4325,4348.333496,4295.384766,4280.512695,4255.384766,4270.256348,4270.769043,4426.410156,4336.666504,4380.384766,4391.922852
4266.666504,4261.794922,4264.230957,4319.487305,4340.128418,4296.794922,4280.769043,4261.410156,4275.897461,4263.846191,4416.282227,4328.077148,4369.358887,4377.179688
4269.102539,4259.871582,4260.384766,4314.358887,4337.05127,4296.282227,4279.102539,4265.384766,4273.846191,4259.871582,4417.820313,4328.205078,4367.436035,4373.589844
4276.282227,4252.820313,4264.871582,4310.128418,4333.974121,4293.974121,4280.256348,4261.538574,4264.230957,4250.897461,4416.153809,4330.256348,4370.641113,4380.256348
4269.230957,4249.358887,4263.846191,4308.974121,4327.692383,4292.692383,4282.05127,4263.717773,4270.384766,4247.436035,4414.615234,4331.666504,4370.641113,4381.538574
4264.743652,4248.974121,4260,4307.692383,4324.615234,4293.205078,4279.743652,4277.692383,4288.077148,4256.538574,4420.641113,4339.871582,4373.205078,4382.05127
4272.436035,4248.589844,4265.512695,4310.384766,4329.358887,4294.230957,4281.282227,4279.230957,4288.589844,4262.179688,4433.461426,4354.615234,4379.487305,4392.563965
4280.384766,4252.563965,4278.717773,4318.077148,4332.563965,4295.384766,4289.102539,4281.922852,4287.436035,4268.333496,4450.128418,4370.641113,4386.666504,4404.743652
4287.563965,4259.615234,4286.922852,4321.410156,4327.820313,4292.820313,4289.871582,4294.358887,4301.794922,4280.256348,4463.717773,4380.384766,4393.974121,4412.179688
4294.743652,4263.333496,4287.436035,4321.794922,4323.974121,4285.769043,4282.692383,4290.641113,4303.461426,4289.615234,4467.436035,4381.538574,4399.358887,4419.230957
4300.128418,4263.333496,4291.282227,4325.512695,4328.077148,4283.589844,4283.205078,4281.282227,4297.563965,4298.333496,4473.717773,4382.692383,4406.666504,4425.769043
4304.102539,4261.410156,4297.307617,4328.846191,4331.538574,4291.025879,4287.05127,4284.743652,4304.102539,4303.589844,4487.94873,4384.102539,4412.05127,4428.846191
4311.410156,4271.794922,4303.077148,4339.358887,4337.820313,4296.282227,4285.128418,4286.538574,4311.410156,4303.077148,4494.615234,4380.128418,4415.128418,4434.871582
4322.94873,4295,4313.589844,4354.487305,4352.05127,4295,4282.307617,4284.743652,4312.307617,4305.769043,4488.205078,4379.230957,4425.384766,4447.179688
4320.384766,4284.102539,4314.743652,4345.512695,4352.179688,4292.692383,4281.794922,4285,4306.282227,4299.743652,4475.769043,4380.256348,4424.102539,4448.077148
4312.05127,4261.410156,4307.94873,4333.333496,4343.974121,4293.974121,4285.128418,4278.461426,4295.641113,4282.307617,4467.307617,4379.102539,4404.487305,4439.487305
4327.94873,4291.538574,4320.512695,4355.641113,4353.077148,4299.230957,4295.256348,4284.487305,4294.871582,4280.128418,4474.230957,4392.563965,4403.974121,4452.692383
4345.769043,4324.615234,4337.94873,4374.358887,4359.743652,4301.538574,4299.743652,4298.589844,4304.102539,4285.384766,4478.717773,4401.410156,4417.563965,4470.897461
4328.077148,4305.128418,4323.717773,4354.358887,4349.871582,4295,4291.282227,4287.307617,4296.666504,4273.205078,4462.436035,4381.922852,4407.179688,4454.743652
4307.820313,4286.794922,4302.563965,4337.307617,4346.282227,4291.025879,4287.05127,4273.846191,4279.743652,4260.384766,4446.153809,4367.692383,4390.769043,4431.282227
4314.743652,4295.256348,4306.666504,4343.717773,4348.589844,4295.512695,4290.512695,4281.282227,4282.307617,4262.820313,4456.794922,4379.487305,4388.846191,4434.487305
4317.563965,4294.615234,4315.256348,4345.384766,4342.94873,4297.563965,4290.512695,4293.333496,4293.717773,4263.333496,4474.871582,4393.461426,4393.589844,4444.102539
4313.333496,4293.974121,4315.769043,4342.179688,4345.641113,4295.512695,4292.692383,4300,4295.897461,4258.589844,4479.358887,4400.256348,4404.487305,4445.384766
4315.384766,4296.666504,4318.205078,4345,4351.666504,4294.358887,4299.487305,4306.282227,4297.94873,4266.922852,4487.05127,4404.871582,4411.153809,4446.025879
4318.461426,4289.871582,4322.179688,4349.230957,4349.230957,4298.974121,4304.102539,4311.794922,4308.333496,4286.025879,4505.769043,4407.820313,4411.153809,4451.025879
4322.179688,4291.025879,4327.179688,4354.358887,4354.230957,4302.692383,4305.128418,4315.897461,4316.025879,4296.538574,4520.769043,4416.410156,4422.820313,4459.743652
4325.897461,4295.897461,4330.512695,4354.871582,4359.487305,4297.820313,4300.897461,4315.897461,4318.077148,4297.94873,4526.153809,4421.410156,4435.256348,4463.461426
4327.94873,4296.282227,4329.358887,4350.641113,4355.384766,4294.743652,4294.871582,4309.487305,4319.743652,4303.717773,4526.922852,4416.025879,4436.153809,4464.743652
4332.692383,4300.384766,4329.615234,4351.282227,4354.487305,4294.743652,4291.794922,4306.922852,4320.897461,4313.205078,4528.205078,4415.512695,4442.307617,4473.589844
4340.256348,4303.589844,4333.077148,4352.94873,4358.589844,4293.461426,4288.333496,4308.846191,4320.641113,4313.205078,4528.461426,4416.922852,4446.794922,4482.05127
4338.205078,4298.333496,4333.461426,4348.205078,4357.436035,4295.256348,4284.358887,4300.512695,4314.102539,4309.615234,4519.358887,4409.102539,4440.769043,4478.589844
4329.743652,4295.769043,4328.333496,4340.769043,4353.717773,4291.153809,4282.436035,4284.102539,4307.692383,4311.025879,4507.692383,4401.922852,4437.05127,4474.358887
4327.820313,4299.871582,4321.794922,4337.436035,4356.794922,4283.205078,4280.897461,4280.641113,4310.512695,4307.179688,4504.615234,4400.897461,4435.641113,4477.179688
4325.769043,4297.692383,4316.538574,4333.589844,4357.436035,4286.666504,4284.230957,4290,4313.205078,4297.05127,4497.820313,4396.410156,4426.922852,4472.692383
4316.282227,4292.820313,4312.692383,4330.512695,4351.282227,4289.615234,4285.256348,4294.743652,4310.769043,4294.743652,4487.179688,4391.025879,4415.897461,4456.410156
4310.897461,4297.179688,4311.538574,4335.897461,4350,4281.282227,4280,4296.794922,4309.102539,4295.256348,4487.05127,4391.666504,4410.769043,4449.358887
4315,4302.820313,4309.871582,4343.333496,4356.666504,4278.333496,4279.743652,4301.922852,4309.358887,4287.820313,4491.538574,4394.487305,4410.641113,4453.846191
4313.846191,4301.922852,4305.769043,4342.94873,4358.717773,4282.436035,4284.743652,4305.769043,4308.205078,4280.128418,4490.897461,4395.512695,4411.282227,4449.615234
4306.282227,4300.769043,4301.666504,4340.256348,4356.282227,4283.589844,4286.282227,4308.974121,4308.461426,4281.794922,4489.743652,4391.282227,4411.282227,4441.410156
4301.538574,4299.743652,4302.563965,4341.538574,4356.922852,4286.410156,4288.461426,4311.538574,4309.487305,4283.589844,4489.230957,4388.846191,4407.94873,4439.102539
4299.871582,4294.102539,4305.769043,4341.922852,4355.897461,4289.871582,4293.461426,4308.461426,4308.846191,4280.512695,4487.94873,4393.077148,4398.461426,4436.410156
4302.436035,4293.333496,4306.794922,4340.512695,4352.692383,4291.025879,4297.820313,4307.179688,4309.871582,4282.563965,4489.102539,4395.769043,4397.05127,4436.025879
4307.05127,4299.230957,4309.871582,4342.179688,4352.563965,4293.333496,4298.205078,4312.563965,4317.307617,4289.743652,4492.05127,4395.512695,4408.717773,4441.282227
4311.410156,4299.487305,4317.179688,4343.974121,4355.769043,4294.743652,4295.128418,4315.256348,4326.538574,4295.384766,4495.641113,4396.410156,4415,4444.871582
4315.769043,4294.743652,4321.794922,4342.820313,4358.974121,4293.846191,4292.307617,4303.205078,4321.153809,4295.769043,4491.666504,4394.743652,4410.641113,4443.077148
4320.128418,4296.666504,4325.256348,4342.05127,4358.077148,4293.077148,4290.128418,4292.820313,4308.589844,4288.077148,4486.794922,4394.102539,4407.820313,4442.436035
4328.589844,4304.743652,4335.512695,4348.846191,4358.333496,4294.487305,4289.487305,4301.666504,4312.563965,4287.307617,4499.487305,4406.153809,4418.205078,4456.282227
4333.333496,4307.307617,4341.153809,4352.179688,4356.666504,4287.94873,4287.563965,4307.05127,4316.410156,4293.077148,4509.743652,4414.743652,4428.333496,4468.846191
4331.794922,4304.358887,4338.077148,4345.512695,4350.769043,4278.461426,4280.769043,4302.820313,4309.871582,4293.205078,4502.820313,4407.94873,4425.641113,4469.102539
4342.05127,4308.589844,4345,4346.025879,4353.077148,4284.230957,4280.897461,4307.307617,4317.179688,4293.846191,4507.820313,4409.487305,4430.128418,4480
4355.128418,4313.717773,4353.461426,4350,4354.871582,4288.717773,4289.743652,4316.538574,4326.666504,4297.820313,4521.410156,4421.794922,4445.256348,4498.205078
4346.410156,4308.205078,4345.897461,4341.922852,4349.487305,4281.794922,4291.282227,4310.769043,4315.641113,4294.615234,4520.256348,4423.077148,4443.333496,4496.666504
4333.717773,4305,4335.256348,4337.94873,4351.410156,4285.384766,4288.205078,4299.102539,4310.512695,4293.077148,4518.333496,4416.666504,4429.230957,4483.717773
4339.358887,4309.230957,4337.307617,4341.794922,4355.641113,4296.794922,4294.487305,4302.94873,4322.820313,4300.897461,4524.871582,4414.487305,4430.641113,4486.410156
4342.563965,4311.282227,4340,4336.282227,4352.820313,4297.692383,4300.897461,4307.692383,4326.282227,4302.820313,4524.871582,4413.205078,4439.102539,4488.717773
4337.94873,4311.410156,4338.589844,4334.487305,4354.358887,4297.179688,4300.769043,4302.820313,4323.333496,4303.589844,4527.692383,4419.358887,4443.717773,4485.256348
4338.333496,4313.205078,4338.077148,4343.077148,4359.871582,4299.871582,4299.871582,4301.666504,4325.769043,4310.512695,4540.256348,4427.94873,4443.461426,4485.512695
4334.358887,4311.538574,4333.974121,4342.820313,4357.436035,4294.743652,4297.05127,4310.512695,4326.282227,4310.769043,4541.153809,4423.333496,4433.974121,4481.025879
4324.871582,4307.436035,4326.025879,4338.846191,4355.641113,4288.974121,4291.025879,4323.333496,4331.025879,4309.102539,4531.922852,4416.922852,4427.94873,4473.717773
4322.563965,4308.846191,4321.410156,4341.794922,4358.717773,4289.615234,4284.615234,4330.128418,4337.820313,4308.333496,4521.666504,4412.94873,4428.077148,4466.666504
4321.153809,4311.282227,4321.282227,4343.717773,4362.05127,4291.538574,4282.05127,4319.871582,4334.615234,4301.025879,4512.563965,4401.538574,4421.666504,4459.615234
4311.538574,4307.692383,4319.230957,4341.153809,4365.128418,4292.94873,4285.384766,4305.769043,4325.641113,4294.615234,4507.05127,4392.179688,4409.102539,4452.179688
4307.94873,4306.025879,4320.897461,4340.384766,4364.487305,4294.358887,4293.846191,4310.384766,4320.256348,4294.102539,4501.922852,4395.897461,4400.128418,4448.333496
4312.307617,4308.589844,4325.384766,4342.307617,4365.256348,4295.897461,4297.94873,4308.205078,4317.05127,4288.589844,4494.615234,4396.922852,4398.205078,4446.666504
4309.487305,4304.230957,4322.436035,4342.563965,4365.641113,4296.922852,4298.461426,4292.307617,4306.538574,4276.794922,4485.897461,4385.641113,4397.436035,4441.282227
4303.717773,4295.512695,4316.025879,4335.384766,4361.666504,4297.94873,4297.692383,4289.230957,4296.922852,4266.153809,4474.102539,4378.077148,4389.102539,4434.743652
4302.307617,4290.897461,4313.205078,4323.846191,4356.794922,4296.538574,4292.436035,4293.717773,4299.871582,4258.461426,4467.307617,4380.897461,4376.410156,4428.077148
4308.461426,4292.307617,4320.128418,4324.358887,4356.922852,4294.358887,4292.436035,4301.153809,4309.871582,4264.102539,4485.384766,4395.384766,4384.358887,4441.153809
4322.436035,4297.820313,4331.538574,4335.256348,4362.05127,4296.282227,4300.128418,4313.077148,4315.769043,4280.384766,4509.487305,4414.487305,4409.743652,4465.256348
4332.563965,4304.743652,4339.102539,4342.05127,4365.769043,4296.666504,4302.820313,4313.717773,4316.538574,4283.205078,4513.974121,4420.641113,4422.94873,4472.94873
4337.436035,4310.769043,4347.94873,4346.153809,4365.641113,4294.102539,4300,4311.025879,4318.589844,4283.077148,4522.692383,4423.077148,4425.384766,4480
4346.538574,4313.846191,4358.461426,4351.153809,4367.179688,4293.205078,4297.436035,4319.871582,4324.102539,4299.743652,4542.05127,4438.974121,4435.128418,4495.512695
4351.282227,4310.512695,4357.05127,4348.333496,4367.692383,4290.384766,4295.769043,4320.897461,4327.820313,4309.230957,4541.794922,4445.256348,4439.358887,4498.717773
4347.05127,4310.128418,4348.333496,4343.846191,4365.641113,4288.333496,4295.769043,4308.461426,4320.897461,4299.871582,4526.538574,4432.692383,4431.794922,4491.794922
4350,4325.128418,4353.077148,4354.358887,4372.563965,4294.358887,4299.358887,4302.692383,4310.769043,4294.487305,4522.563965,4426.922852,4432.692383,4493.717773
4360.641113,4336.025879,4364.615234,4366.538574,4381.282227,4297.94873,4300,4302.307617,4314.487305,4301.025879,4524.871582,4429.615234,4440.512695,4497.820313
4359.871582,4330.256348,4362.05127,4364.743652,4378.589844,4294.743652,4297.05127,4298.846191,4316.794922,4299.487305,4519.487305,4423.974121,4435.384766,4494.358887
4348.717773,4325.256348,4350.384766,4355,4373.205078,4293.846191,4291.153809,4290.512695,4304.487305,4287.563965,4512.692383,4415.769043,4421.666504,4488.461426
4343.846191,4326.538574,4345.769043,4347.436035,4367.692383,4290.384766,4284.358887,4281.794922,4293.205078,4280.128418,4507.820313,4411.282227,4414.871582,4480.128418
4344.358887,4323.846191,4346.666504,4347.94873,4361.025879,4282.179688,4281.538574,4283.333496,4295.512695,4278.589844,4495.897461,4405.384766,4412.179688,4474.871582
4339.487305,4318.461426,4345.128418,4349.487305,4359.743652,4281.666504,4282.94873,4297.307617,4306.025879,4280.128418,4489.102539,4405.641113,4412.820313,4472.820313
4335,4318.846191,4343.205078,4346.282227,4361.282227,4283.974121,4286.282227,4310.384766,4312.94873,4282.179688,4499.102539,4409.487305,4415.128418,4469.102539
4329.615234,4318.333496,4336.538574,4341.282227,4357.820313,4280.897461,4286.025879,4310.128418,4310.897461,4278.461426,4500.769043,4399.743652,4409.358887,4461.153809
4320.384766,4314.358887,4329.487305,4338.077148,4355.128418,4280,4284.102539,4301.794922,4307.94873,4273.461426,4485.256348,4388.846191,4404.487305,4454.871582
4321.410156,4314.615234,4331.538574,4337.179688,4357.692383,4282.436035,4288.846191,4305.769043,4315,4279.743652,4488.717773,4397.05127,4411.794922,4458.077148
4325.384766,4310.641113,4333.717773,4333.974121,4358.461426,4281.282227,4290.769043,4313.974121,4322.692383,4287.692383,4506.666504,4401.922852,4415.641113,4457.179688
4315.769043,4299.871582,4329.487305,4328.974121,4352.436035,4277.179688,4280.769043,4304.487305,4316.410156,4279.230957,4501.025879,4389.871582,4406.153809,4451.153809
4312.179688,4301.410156,4325.641113,4331.794922,4347.820313,4277.692383,4275.897461,4294.871582,4307.05127,4275.384766,4489.743652,4382.692383,4403.974121,4451.922852
4323.589844,4308.077148,4325,4341.025879,4353.333496,4281.794922,4282.692383,4304.615234,4311.538574,4288.717773,4494.358887,4384.358887,4410.384766,4452.179688
4320.897461,4299.743652,4320.512695,4336.922852,4350.641113,4280.512695,4280.128418,4302.179688,4313.974121,4294.230957,4489.743652,4377.692383,4409.230957,4448.717773
4308.974121,4291.410156,4314.743652,4330.384766,4339.743652,4276.922852,4271.794922,4279.743652,4301.666504,4288.589844,4473.461426,4369.743652,4408.589844,4448.461426
4314.871582,4297.307617,4319.487305,4340,4343.205078,4283.205078,4280.897461,4278.077148,4298.974121,4292.94873,4477.05127,4377.94873,4415.641113,4454.743652
4327.179688,4303.461426,4328.461426,4346.794922,4349.487305,4293.333496,4293.077148,4293.589844,4309.102539,4303.974121,4492.820313,4390.256348,4417.05127,4464.358887
4327.179688,4303.846191,4326.025879,4342.820313,4344.743652,4296.025879,4291.153809,4296.025879,4305.769043,4301.153809,4490.256348,4389.102539,4409.871582,4468.717773
4322.692383,4304.358887,4317.563965,4343.974121,4341.282227,4295.256348,4292.179688,4296.410156,4294.358887,4285.384766,4475.512695,4385,4405.641113,4466.410156
4325.384766,4302.94873,4318.846191,4348.205078,4341.794922,4297.05127,4300,4304.102539,4295.641113,4277.692383,4471.282227,4393.717773,4403.333496,4467.436035
4327.179688,4299.487305,4321.282227,4345,4337.820313,4297.692383,4295.641113,4299.871582,4296.538574,4280,4474.615234,4401.666504,4398.333496,4469.358887
4321.666504,4295.384766,4313.717773,4341.282227,4331.025879,4295.384766,4287.692383,4294.487305,4294.743652,4280.512695,4472.692383,4399.102539,4394.615234,4464.615234
4318.717773,4294.487305,4311.153809,4341.153809,4331.025879,4293.077148,4293.589844,4309.487305,4305.897461,4277.692383,4470,4404.102539,4397.05127,4464.102539
4320.256348,4295.512695,4315.256348,4337.179688,4332.563965,4295.256348,4298.205078,4318.333496,4312.94873,4278.974121,4472.307617,4413.205078,4396.666504,4466.025879
4318.461426,4294.615234,4315,4335.128418,4330.641113,4295.769043,4293.846191,4311.794922,4312.05127,4283.589844,4474.102539,4412.179688,4392.436035,4464.871582
4312.94873,4293.589844,4312.692383,4337.820313,4326.410156,4284.358887,4291.922852,4313.077148,4315.512695,4283.077148,4475.128418,4408.461426,4395.769043,4463.717773
4310.512695,4292.307617,4314.615234,4336.794922,4326.666504,4280.769043,4293.077148,4313.589844,4309.358887,4278.589844,4476.410156,4404.871582,4396.410156,4459.102539
4310.256348,4289.102539,4315.769043,4334.871582,4329.487305,4290.897461,4294.743652,4301.538574,4295.769043,4275.641113,4469.487305,4396.153809,4387.179688,4456.666504
4314.102539,4290.641113,4318.974121,4338.974121,4331.794922,4296.153809,4299.230957,4303.589844,4302.692383,4281.153809,4464.230957,4398.717773,4389.615234,4458.974121
4318.974121,4297.820313,4324.102539,4345.256348,4335.897461,4293.846191,4297.94873,4313.205078,4314.487305,4283.333496,4471.282227,4404.615234,4400.897461,4460.128418
4316.922852,4288.589844,4320,4342.179688,4334.487305,4289.487305,4290.512695,4302.436035,4306.025879,4277.820313,4476.282227,4396.282227,4395.256348,4457.307617
4313.461426,4274.230957,4316.666504,4335.897461,4327.307617,4281.922852,4288.589844,4293.974121,4302.692383,4282.436035,4472.436035,4392.692383,4384.102539,4454.487305
4319.615234,4285.769043,4321.794922,4337.820313,4326.666504,4280,4289.102539,4302.94873,4311.282227,4294.230957,4476.025879,4403.077148,4396.282227,4459.487305
4316.153809,4273.077148,4319.487305,4328.077148,4327.692383,4290.897461,4291.025879,4311.922852,4314.102539,4299.102539,4486.922852,4408.077148,4407.179688,4463.846191
4304.358887,4245.384766,4312.563965,4315,4325.512695,4293.461426,4296.025879,4310.897461,4310.897461,4293.589844,4489.230957,4405.641113,4398.846191,4462.179688
4320.128418,4284.871582,4325.256348,4338.846191,4334.230957,4290.769043,4300.897461,4310.384766,4307.563965,4284.487305,4488.846191,4412.692383,4402.692383,4471.922852
4351.025879,4346.153809,4346.025879,4372.179688,4347.820313,4294.230957,4299.230957,4311.025879,4305,4283.846191,4495.641113,4424.487305,4418.461426,4497.820313
4356.922852,4350.256348,4347.692383,4368.717773,4344.487305,4288.461426,4291.282227,4303.461426,4298.461426,4283.077148,4495,4422.436035,4413.846191,4502.820313
4357.05127,4354.743652,4345.384766,4364.230957,4341.153809,4281.025879,4288.846191,4294.871582,4292.307617,4270.897461,4483.461426,4414.487305,4402.179688,4492.563965
4376.922852,4391.282227,4357.563965,4385,4353.461426,4285.256348,4292.94873,4295.384766,4293.333496,4268.717773,4485.256348,4418.717773,4405.128418,4502.307617
4383.205078,4396.666504,4362.563965,4388.974121,4354.102539,4286.794922,4289.743652,4296.794922,4296.153809,4276.922852,4489.487305,4424.743652,4399.230957,4510.512695
4365.128418,4379.743652,4348.205078,4373.717773,4342.94873,4279.230957,4279.230957,4291.922852,4294.487305,4270.256348,4480,4416.666504,4382.307617,4496.666504
4352.05127,4374.743652,4336.282227,4366.538574,4346.025879,4279.102539,4277.820313,4292.563965,4295.256348,4261.794922,4477.563965,4408.333496,4379.230957,4483.077148
4348.205078,4367.563965,4334.871582,4363.333496,4351.282227,4283.333496,4283.461426,4299.230957,4300,4268.077148,4480.256348,4408.846191,4381.153809,4481.538574
4340.384766,4356.922852,4332.179688,4359.871582,4346.153809,4282.307617,4286.025879,4301.410156,4299.102539,4270.641113,4474.743652,4406.794922,4375.512695,4475.128418
4328.846191,4346.538574,4322.179688,4354.102539,4341.410156,4281.025879,4284.743652,4302.563965,4293.717773,4263.589844,4465.384766,4397.563965,4360.128418,4456.410156
4322.307617,4340.769043,4315.897461,4350.897461,4343.461426,4280.256348,4291.282227,4308.589844,4297.05127,4264.871582,4462.692383,4392.307617,4352.179688,4444.871582
4314.487305,4335.641113,4314.358887,4350,4343.589844,4284.487305,4297.307617,4310,4298.589844,4267.436035,4460,4388.846191,4352.94873,4442.820313
4309.743652,4331.153809,4309.743652,4345.384766,4341.794922,4286.410156,4289.871582,4300.897461,4287.94873,4255.512695,4452.820313,4379.102539,4348.461426,4436.282227
4316.666504,4332.94873,4309.615234,4344.871582,4344.358887,4281.025879,4283.974121,4293.205078,4284.102539,4248.077148,4450.512695,4372.692383,4346.282227,4433.205078
4323.974121,4335,4318.205078,4350.897461,4349.358887,4277.179688,4281.025879,4294.358887,4289.230957,4255.256348,4456.538574,4375.512695,4354.487305,4439.487305
4320.897461,4332.179688,4315.641113,4349.615234,4351.410156,4276.410156,4273.205078,4294.743652,4287.179688,4255.897461,4459.871582,4376.282227,4360.128418,4438.205078
4315.897461,4328.717773,4305.512695,4339.615234,4349.743652,4277.94873,4272.307617,4288.589844,4283.461426,4251.794922,4453.846191,4372.820313,4353.589844,4431.666504
4315.769043,4331.153809,4311.025879,4336.794922,4350.769043,4284.743652,4287.05127,4293.333496,4292.436035,4262.307617,4459.102539,4379.487305,4351.666504,4439.358887
4313.077148,4327.436035,4315.256348,4336.025879,4351.410156,4292.563965,4298.333496,4309.743652,4300.256348,4268.077148,4464.102539,4389.487305,4355.256348,4446.282227
4307.94873,4318.205078,4303.077148,4331.410156,4348.333496,4290.769043,4299.230957,4313.077148,4296.794922,4261.282227,4450.512695,4383.717773,4351.538574,4437.05127
4310.512695,4320.384766,4303.846191,4336.025879,4349.230957,4291.153809,4300,4306.410156,4293.461426,4263.974121,4448.717773,4377.94873,4349.743652,4433.461426
4320,4327.436035,4316.282227,4342.94873,4352.563965,4295.128418,4303.205078,4308.717773,4296.025879,4266.538574,4462.179688,4387.05127,4352.692383,4441.666504
4318.846191,4324.102539,4310,4333.974121,4350.512695,4288.717773,4302.436035,4307.563965,4293.974121,4259.615234,4461.922852,4390,4349.102539,4444.871582
4310.512695,4317.179688,4300.769043,4320.897461,4348.077148,4279.871582,4292.563965,4296.025879,4283.333496,4258.205078,4454.102539,4382.563965,4341.922852,4439.743652
4315.641113,4322.94873,4312.436035,4327.436035,4352.307617,4280,4291.410156,4296.794922,4285.384766,4264.358887,4458.589844,4386.410156,4348.717773,4441.538574
4322.820313,4329.615234,4317.820313,4338.205078,4353.717773,4281.410156,4295.641113,4305.384766,4297.820313,4266.922852,4462.692383,4392.563965,4359.102539,4445.769043
4316.410156,4321.922852,4306.922852,4332.179688,4349.358887,4280.897461,4291.153809,4306.282227,4300.256348,4265.897461,4466.410156,4387.94873,4359.743652,4442.94873
4317.307617,4324.743652,4307.436035,4335.897461,4354.743652,4288.974121,4293.077148,4306.410156,4296.794922,4268.461426,4478.205078,4390.512695,4365.769043,4446.666504
4324.102539,4335.256348,4316.410156,4347.05127,4362.436035,4296.666504,4303.205078,4310.384766,4299.102539,4267.436035,4479.102539,4396.025879,4374.102539,4449.615234
4316.282227,4315.384766,4313.589844,4334.358887,4358.846191,4295,4310.769043,4317.692383,4305.384766,4265.512695,4473.077148,4394.230957,4368.974121,4444.102539
4316.410156,4303.589844,4312.94873,4328.077148,4358.589844,4296.794922,4313.717773,4321.794922,4306.922852,4265.256348,4475.641113,4395.128418,4366.025879,4444.358887
4329.102539,4336.922852,4320.128418,4346.153809,4367.563965,4298.846191,4309.102539,4312.820313,4297.692383,4256.025879,4468.846191,4392.563965,4368.589844,4448.589844
4328.846191,4358.205078,4320.128418,4350.897461,4367.179688,4296.410156,4300.256348,4302.179688,4289.358887,4246.666504,4451.922852,4384.615234,4356.538574,4441.282227
4320.897461,4341.282227,4314.615234,4339.358887,4358.205078,4296.025879,4299.102539,4303.974121,4292.179688,4245.641113,4451.153809,4382.179688,4338.077148,4431.538574
4323.974121,4336.410156,4313.333496,4339.102539,4356.282227,4296.153809,4297.94873,4304.230957,4290.128418,4240.384766,4455.641113,4378.846191,4338.461426,4431.153809
4330,4345.641113,4316.666504,4343.846191,4358.974121,4292.563965,4290.897461,4294.358887,4280.384766,4229.487305,4446.410156,4369.871582,4341.794922,4429.102539
4327.820313,4338.846191,4322.179688,4338.077148,4356.794922,4292.307617,4292.692383,4291.794922,4278.461426,4230.512695,4441.538574,4370.769043,4333.717773,4428.589844
4325.769043,4329.871582,4323.717773,4329.615234,4354.743652,4293.974121,4299.230957,4300.769043,4285.384766,4241.666504,4445.256348,4381.666504,4334.102539,4436.538574
4327.820313,4333.077148,4319.871582,4328.461426,4360.769043,4292.563965,4298.846191,4301.538574,4291.025879,4246.922852,4445.897461,4386.410156,4343.974121,4440.897461
4331.794922,4339.487305,4321.666504,4339.230957,4369.487305,4292.820313,4293.846191,4295.769043,4294.230957,4249.358887,4452.820313,4387.307617,4348.461426,4440.256348
4333.974121,4336.282227,4328.077148,4344.871582,4370.897461,4294.230957,4289.358887,4297.563965,4294.358887,4256.538574,4462.94873,4391.282227,4347.692383,4443.461426
4335.256348,4333.205078,4328.333496,4336.153809,4369.743652,4294.871582,4290.512695,4298.461426,4291.794922,4263.461426,4462.563965,4394.102539,4351.922852,4448.077148
4334.230957,4333.205078,4326.025879,4330.256348,4370,4293.077148,4291.538574,4299.102539,4292.820313,4258.717773,4463.205078,4396.666504,4359.230957,4450.384766
4327.563965,4322.692383,4321.153809,4327.563965,4361.666504,4285.769043,4284.102539,4307.436035,4294.102539,4249.358887,4466.538574,4395.769043,4351.794922,4448.589844
4321.153809,4314.871582,4311.922852,4321.410156,4348.846191,4277.436035,4275.897461,4311.410156,4292.692383,4246.794922,4468.589844,4390.641113,4341.794922,4440.256348
4325.384766,4325.384766,4312.307617,4322.179688,4352.179688,4278.461426,4278.077148,4307.820313,4294.615234,4252.307617,4473.461426,4397.563965,4354.487305,4442.94873
4338.077148,4341.410156,4325.256348,4338.974121,4363.461426,4286.666504,4283.077148,4308.461426,4297.692383,4262.05127,4475.512695,4411.282227,4371.922852,4458.205078
4337.563965,4343.077148,4327.563965,4348.205078,4361.794922,4288.589844,4282.05127,4310.641113,4296.153809,4261.153809,4473.333496,4407.179688,4366.025879,4458.846191
4325.897461,4336.666504,4315.512695,4334.615234,4354.230957,4286.410156,4283.077148,4309.102539,4295.128418,4251.538574,4476.666504,4394.743652,4357.307617,4446.025879
4327.692383,4337.307617,4314.487305,4328.461426,4357.94873,4290.512695,4287.563965,4311.410156,4298.205078,4249.871582,4473.205078,4394.358887,4362.692383,4444.230957
4334.743652,4338.974121,4324.358887,4340.512695,4365.512695,4295.384766,4290,4311.153809,4297.820313,4252.436035,4458.333496,4396.282227,4363.846191,4442.05127
4330.769043,4332.563965,4324.871582,4341.025879,4366.538574,4293.077148,4290.384766,4301.922852,4293.974121,4250.384766,4459.487305,4393.205078,4355.256348,4431.666504
4329.358887,4328.846191,4320.384766,4331.922852,4365.641113,4287.436035,4287.436035,4296.025879,4292.563965,4255.512695,4473.461426,4394.743652,4354.615234,4433.589844
4333.461426,4334.871582,4322.05127,4332.94873,4366.153809,4287.563965,4283.974121,4296.282227,4291.666504,4264.871582,4473.846191,4401.282227,4361.794922,4442.94873
4340.384766,4337.307617,4329.358887,4335.769043,4368.846191,4290.641113,4287.563965,4297.179688,4294.230957,4267.692383,4470.641113,4407.563965,4366.666504,4443.205078
4349.102539,4331.666504,4340.769043,4333.461426,4367.94873,4289.871582,4288.846191,4298.077148,4295,4264.102539,4476.794922,4411.922852,4369.230957,4447.563965
4352.307617,4336.666504,4346.922852,4338.589844,4365.897461,4288.974121,4281.153809,4292.563965,4284.743652,4253.717773,4479.230957,4412.436035,4373.846191,4457.05127
4354.487305,4344.871582,4347.563965,4345.256348,4372.563965,4295.128418,4284.615234,4290.769043,4280.641113,4251.153809,4475,4417.05127,4375.769043,4460.897461
4352.179688,4327.692383,4349.871582,4336.538574,4378.205078,4301.025879,4299.615234,4304.615234,4291.025879,4260.512695,4475.128418,4425.256348,4371.025879,4460.512695
4345.512695,4319.358887,4348.974121,4329.615234,4373.461426,4297.179688,4297.05127,4315.384766,4295.897461,4260.769043,4477.436035,4421.410156,4371.794922,4457.692383
4346.025879,4345.641113,4344.615234,4337.436035,4368.717773,4292.692383,4287.692383,4310.256348,4291.666504,4251.410156,4472.05127,4408.077148,4372.307617,4451.794922
4351.025879,4360.512695,4344.871582,4340.256348,4368.205078,4293.333496,4290.384766,4308.717773,4292.179688,4248.333496,4462.307617,4408.077148,4363.846191,4451.922852
4347.94873,4347.179688,4345.384766,4333.461426,4366.410156,4294.487305,4296.025879,4315.769043,4295.769043,4248.333496,4459.358887,4418.589844,4360.512695,4453.846191
4345.128418,4344.358887,4341.922852,4334.615234,4365.769043,4294.358887,4296.794922,4315.384766,4294.358887,4246.666504,4463.205078,4418.589844,4366.922852,4448.589844
4344.743652,4346.282227,4338.717773,4337.179688,4367.05127,4295,4294.871582,4311.666504,4291.922852,4248.461426,4462.307617,4410,4370.641113,4444.358887
4339.102539,4335.769043,4333.077148,4332.436035,4360.769043,4293.205078,4292.05127,4310.128418,4294.102539,4249.743652,4460,4402.692383,4369.743652,4443.205078
4342.436035,4337.307617,4330.769043,4336.538574,4351.025879,4287.563965,4290.256348,4301.410156,4291.025879,4249.230957,4460.897461,4398.717773,4369.487305,4438.974121
4349.358887,4341.538574,4337.436035,4345.384766,4347.94873,4283.974121,4290.512695,4295.769043,4282.307617,4254.102539,4458.846191,4401.666504,4365,4437.94873
4345.897461,4334.487305,4338.974121,4344.615234,4348.333496,4288.205078,4293.461426,4306.153809,4286.410156,4260.897461,4457.563965,4412.692383,4370.128418,4443.461426
4342.179688,4325.897461,4332.820313,4338.077148,4343.077148,4295.384766,4298.974121,4316.025879,4294.743652,4266.025879,4459.487305,4422.179688,4382.94873,4446.153809
4340.256348,4318.461426,4326.538574,4333.077148,4330.384766,4291.666504,4298.333496,4311.666504,4287.94873,4264.871582,4454.871582,4418.974121,4378.461426,4442.692383
4336.025879,4311.794922,4323.846191,4335,4321.794922,4281.282227,4296.410156,4310.384766,4279.871582,4254.487305,4445.769043,4413.205078,4365.641113,4435.256348
4332.436035,4308.589844,4321.410156,4336.025879,4322.94873,4278.974121,4294.615234,4315.128418,4280.769043,4244.743652,4433.589844,4407.692383,4362.436035,4428.333496
4330.384766,4311.153809,4316.153809,4330.384766,4325.897461,4282.436035,4287.563965,4310.384766,4279.102539,4245.384766,4426.666504,4398.717773,4367.436035,4425.256348
4328.846191,4311.666504,4314.358887,4327.563965,4327.05127,4279.871582,4284.487305,4305.384766,4274.871582,4247.436035,4438.077148,4399.615234,4371.282227,4427.692383
4334.871582,4311.282227,4321.410156,4333.589844,4325.769043,4275.384766,4287.563965,4313.846191,4274.743652,4243.205078,4446.282227,4413.077148,4371.794922,4434.871582
4345.897461,4319.358887,4333.717773,4343.333496,4325.512695,4278.589844,4290.128418,4322.563965,4280.897461,4245,4436.282227,4422.179688,4372.94873,4444.102539
4348.205078,4333.717773,4335.769043,4349.230957,4328.717773,4280.256348,4288.461426,4313.846191,4283.589844,4250.769043,4438.717773,4418.077148,4383.717773,4444.743652
4335.384766,4322.436035,4323.077148,4339.102539,4327.692383,4278.717773,4286.922852,4303.077148,4272.307617,4242.05127,4446.922852,4408.333496,4377.436035,4429.871582
4319.743652,4291.538574,4310.641113,4322.179688,4320.128418,4279.358887,4290,4306.025879,4262.307617,4222.05127,4426.410156,4403.974121,4338.333496,4414.358887
4319.871582,4296.282227,4306.025879,4318.717773,4315.897461,4278.205078,4289.871582,4302.820313,4263.077148,4216.025879,4405.769043,4399.230957,4334.615234,4410.641113
4323.077148,4309.230957,4304.615234,4316.538574,4315.128418,4277.436035,4286.794922,4298.589844,4264.230957,4225.128418,4411.025879,4396.794922,4374.615234,4412.692383
4312.820313,4285.897461,4301.410156,4305.641113,4311.025879,4279.230957,4288.461426,4305,4263.589844,4229.102539,4419.743652,4400,4385.384766,4411.282227
4306.153809,4269.615234,4298.717773,4304.743652,4310.128418,4272.94873,4290.512695,4303.333496,4264.615234,4229.102539,4424.615234,4399.743652,4367.563965,4405.897461
4311.666504,4283.333496,4298.717773,4310.512695,4313.205078,4267.563965,4288.461426,4298.589844,4262.436035,4229.871582,4424.102539,4398.333496,4366.153809,4405.512695
4316.538574,4286.666504,4302.820313,4310.897461,4313.333496,4272.94873,4290.384766,4303.974121,4263.333496,4231.666504,4414.102539,4402.563965,4370.512695,4408.077148
4310.641113,4279.358887,4303.205078,4306.922852,4309.871582,4272.179688,4288.589844,4302.94873,4263.974121,4233.205078,4408.974121,4400.384766,4362.94873,4402.94873
4301.922852,4281.410156,4295.769043,4301.538574,4310.128418,4267.179688,4283.461426,4290.897461,4254.615234,4229.358887,4411.922852,4387.307617,4357.05127,4393.461426
4302.05127,4281.538574,4296.025879,4302.436035,4316.794922,4270.128418,4285.256348,4290.128418,4246.282227,4219.487305,4412.820313,4386.538574,4355.641113,4394.230957
4307.05127,4280.512695,4300.384766,4308.974121,4318.461426,4270.128418,4285.384766,4295.512695,4247.307617,4216.410156,4410.128418,4396.282227,4360.769043,4400.128418
4306.538574,4283.974121,4296.922852,4310.512695,4311.538574,4264.871582,4284.230957,4296.153809,4249.358887,4226.282227,4409.102539,4394.871582,4365.897461,4399.102539
4306.666504,4285.641113,4295.384766,4310.641113,4309.743652,4265,4290,4298.589844,4250,4231.282227,4418.205078,4390.769043,4364.615234,4395.256348
4309.487305,4283.205078,4296.794922,4311.410156,4313.205078,4265.769043,4294.871582,4299.230957,4252.05127,4223.461426,4429.871582,4393.846191,4370.256348,4396.922852
4302.94873,4278.974121,4295.641113,4303.333496,4311.666504,4267.692383,4292.94873,4297.563965,4252.179688,4215.897461,4424.871582,4394.230957,4375.769043,4397.94873
4296.025879,4278.077148,4294.615234,4294.230957,4308.461426,4267.692383,4287.820313,4298.205078,4249.230957,4217.436035,4410.769043,4386.794922,4370.897461,4394.487305
4299.487305,4280,4295.769043,4294.871582,4309.230957,4263.205078,4283.846191,4301.538574,4249.487305,4219.230957,4415,4386.410156,4367.692383,4392.179688
4306.282227,4281.794922,4296.794922,4298.589844,4311.794922,4263.717773,4282.179688,4300.512695,4250.769043,4217.307617,4427.05127,4394.615234,4371.025879,4396.794922
4308.461426,4286.025879,4299.743652,4299.615234,4312.563965,4264.871582,4276.922852,4294.871582,4250.128418,4219.871582,4420.512695,4395.128418,4373.974121,4399.743652
4307.436035,4292.307617,4302.692383,4299.102539,4311.153809,4262.307617,4269.615234,4293.717773,4248.717773,4223.077148,4409.615234,4391.922852,4372.179688,4396.282227
4310,4296.025879,4303.974121,4302.94873,4312.436035,4260.256348,4265.641113,4294.102539,4247.05127,4222.307617,4417.436035,4396.538574,4366.410156,4396.794922
4312.307617,4295.384766,4308.717773,4305.128418,4312.563965,4259.743652,4265.512695,4294.358887,4247.94873,4218.461426,4430.384766,4403.717773,4364.102539,4403.461426
4312.563965,4290.384766,4312.307617,4299.230957,4312.563965,4259.487305,4270,4293.974121,4248.974121,4219.871582,4425.897461,4407.179688,4362.820313,4401.922852
4310.897461,4284.871582,4307.94873,4293.461426,4310.512695,4256.025879,4268.589844,4287.179688,4242.436035,4222.179688,4413.205078,4405.384766,4359.358887,4395.897461
4309.358887,4286.410156,4300.641113,4293.077148,4303.205078,4249.743652,4261.025879,4278.589844,4233.077148,4209.615234,4404.487305,4394.871582,4358.205078,4393.205078
4311.666504,4292.563965,4301.153809,4296.025879,4298.717773,4246.794922,4262.179688,4275,4228.974121,4196.153809,4398.846191,4388.461426,4360.641113,4392.820313
4317.436035,4295.897461,4310.384766,4300,4299.358887,4251.410156,4270.384766,4280.384766,4231.538574,4198.974121,4404.102539,4398.846191,4359.615234,4398.589844
4319.487305,4295.512695,4317.307617,4300.256348,4299.871582,4255.128418,4272.692383,4289.487305,4231.410156,4204.358887,4410.897461,4408.205078,4357.05127,4405.128418
4311.794922,4287.820313,4312.436035,4294.102539,4296.282227,4251.922852,4268.589844,4286.922852,4222.179688,4202.307617,4408.589844,4403.205078,4356.153809,4398.846191
4306.794922,4280.897461,4305.256348,4289.615234,4291.538574,4246.794922,4263.974121,4275.256348,4212.820313,4196.794922,4407.94873,4397.436035,4352.436035,4390.256348
4312.692383,4285.769043,4311.666504,4291.666504,4287.563965,4244.615234,4259.358887,4273.589844,4212.436035,4189.102539,4409.743652,4402.179688,4352.94873,4395.769043
4316.666504,4292.179688,4316.922852,4292.307617,4288.333496,4247.179688,4257.05127,4276.666504,4213.589844,4186.410156,4403.846191,4405,4352.820313,4401.025879
4307.05127,4287.820313,4301.538574,4286.538574,4288.974121,4246.922852,4255.897461,4266.922852,4206.153809,4189.871582,4396.538574,4393.077148,4346.282227,4387.307617
4289.487305,4273.461426,4283.077148,4271.794922,4281.025879,4236.410156,4250.512695,4260.256348,4201.025879,4185.256348,4391.666504,4380.128418,4341.410156,4368.205078
4277.563965,4264.871582,4278.974121,4262.307617,4277.436035,4231.410156,4245.897461,4265,4203.205078,4180.512695,4381.410156,4377.179688,4335.897461,4361.922852
4278.717773,4268.974121,4282.307617,4273.461426,4283.077148,4242.05127,4249.615234,4264.743652,4204.230957,4184.230957,4378.974121,4376.922852,4328.717773,4365.256348
4282.05127,4276.794922,4282.820313,4281.153809,4286.153809,4246.025879,4252.307617,4260.897461,4202.307617,4186.410156,4383.333496,4376.794922,4326.153809,4365.256348
4280.256348,4276.410156,4283.205078,4270,4282.436035,4234.487305,4246.922852,4262.563965,4201.922852,4185.128418,4377.05127,4375.769043,4328.589844,4360.256348
4278.717773,4270.769043,4282.692383,4263.846191,4280.512695,4231.282227,4243.333496,4261.538574,4200.897461,4178.589844,4373.077148,4369.230957,4327.307617,4354.871582
4279.871582,4272.563965,4278.589844,4267.563965,4280.128418,4235.897461,4242.179688,4260.256348,4200.641113,4175.769043,4381.538574,4362.563965,4324.358887,4355.641113
4280.897461,4277.820313,4278.974121,4266.794922,4278.846191,4230.512695,4237.179688,4263.589844,4202.692383,4184.358887,4385.769043,4364.871582,4328.461426,4357.820313
4275.128418,4273.717773,4277.563965,4263.205078,4276.666504,4224.871582,4229.102539,4256.794922,4193.589844,4179.102539,4371.282227,4362.179688,4326.282227,4348.077148
4263.333496,4263.974121,4264.743652,4255.641113,4272.307617,4224.102539,4223.333496,4243.589844,4180,4156.794922,4353.333496,4350.512695,4311.794922,4332.94873
4259.743652,4262.692383,4260.769043,4245.128418,4266.538574,4219.358887,4227.179688,4253.974121,4186.025879,4154.230957,4352.563965,4351.410156,4305.384766,4331.153809
4272.179688,4269.743652,4274.487305,4250.769043,4266.666504,4218.846191,4238.205078,4272.820313,4201.410156,4171.538574,4366.666504,4367.563965,4318.717773,4341.794922
4281.794922,4275,4286.153809,4262.436035,4270.256348,4223.974121,4241.794922,4270.897461,4206.538574,4173.974121,4375.384766,4381.025879,4329.871582,4350.641113
4280.769043,4275.128418,4289.615234,4260.512695,4269.230957,4221.410156,4233.589844,4263.589844,4200.128418,4166.282227,4366.794922,4382.05127,4322.94873,4352.820313
4283.077148,4273.974121,4292.05127,4259.358887,4265.641113,4214.358887,4229.230957,4267.436035,4189.358887,4168.461426,4358.077148,4375.897461,4315.512695,4351.410156
4289.230957,4279.615234,4292.179688,4266.282227,4265.769043,4217.94873,4235.641113,4263.461426,4185.128418,4169.871582,4357.94873,4374.487305,4319.871582,4351.153809
4293.077148,4281.922852,4295,4267.436035,4266.794922,4217.05127,4235.897461,4250.384766,4183.333496,4159.487305,4359.487305,4377.692383,4320.769043,4354.102539
4294.230957,4276.922852,4299.358887,4264.358887,4264.487305,4214.102539,4227.692383,4248.461426,4173.205078,4151.410156,4361.282227,4380.769043,4312.692383,4356.025879
4294.615234,4278.333496,4298.333496,4264.615234,4261.922852,4220,4218.205078,4245.384766,4165.641113,4156.282227,4365.641113,4380.384766,4312.05127,4353.974121
4293.205078,4282.94873,4297.820313,4265.641113,4262.436035,4214.615234,4213.077148,4233.974121,4170.256348,4159.102539,4367.820313,4376.794922,4318.077148,4352.436035
4294.230957,4285.384766,4299.743652,4265.384766,4265.256348,4200.641113,4215.256348,4236.538574,4171.922852,4154.615234,4365.769043,4373.077148,4320.897461,4351.282227
4294.358887,4292.436035,4297.820313,4267.179688,4265.641113,4200.256348,4217.179688,4252.05127,4170.384766,4152.692383,4361.282227,4373.717773,4323.333496,4349.358887
4285.384766,4295.384766,4289.230957,4267.563965,4264.230957,4206.538574,4216.538574,4263.333496,4175.384766,4153.974121,4352.94873,4372.692383,4319.230957,4346.538574
4278.974121,4286.538574,4283.077148,4261.025879,4261.282227,4204.102539,4216.410156,4259.743652,4174.615234,4153.461426,4353.589844,4369.871582,4311.794922,4343.846191
4277.307617,4281.153809,4282.94873,4251.410156,4253.974121,4202.307617,4216.922852,4254.230957,4167.94873,4147.05127,4360.512695,4371.025879,4315.128418,4339.743652
4269.358887,4278.589844,4277.563965,4242.820313,4248.333496,4204.743652,4214.871582,4248.717773,4165.897461,4144.358887,4352.563965,4368.974121,4319.230957,4333.974121
4257.307617,4267.820313,4266.666504,4235.641113,4244.871582,4202.307617,4213.846191,4239.358887,4167.436035,4146.025879,4342.179688,4361.538574,4309.871582,4326.794922
4255,4260.384766,4260.769043,4230.641113,4243.589844,4200.256348,4211.538574,4235.897461,4165.256348,4144.358887,4339.487305,4358.077148,4301.922852,4320.769043
4258.589844,4266.794922,4266.538574,4232.820313,4244.230957,4202.179688,4212.179688,4246.538574,4168.333496,4146.153809,4338.717773,4362.820313,4306.282227,4323.461426
4263.846191,4275.641113,4281.922852,4242.05127,4241.922852,4200.384766,4216.282227,4257.563965,4178.846191,4153.974121,4343.974121,4370.256348,4311.666504,4332.820313
4273.846191,4279.102539,4293.589844,4248.717773,4234.358887,4188.717773,4207.820313,4254.230957,4178.077148,4155.384766,4351.666504,4376.794922,4309.871582,4340.512695
4280.256348,4281.410156,4295.897461,4249.871582,4232.692383,4183.205078,4197.307617,4251.282227,4171.794922,4152.563965,4348.333496,4382.94873,4308.717773,4342.94873
4279.615234,4281.794922,4293.461426,4248.846191,4237.307617,4188.974121,4198.077148,4246.410156,4168.333496,4148.205078,4336.282227,4377.94873,4308.846191,4340
4276.025879,4280.769043,4287.94873,4245.641113,4235.897461,4187.05127,4194.743652,4227.692383,4153.717773,4131.666504,4324.615234,4363.333496,4301.666504,4334.230957
4275.512695,4280,4285.897461,4245.897461,4232.820313,4180.256348,4183.846191,4212.692383,4134.102539,4120.512695,4321.666504,4357.179688,4293.717773,4331.922852
4277.692383,4279.102539,4291.410156,4246.410156,4231.922852,4183.846191,4182.307617,4212.692383,4132.05127,4121.538574,4326.538574,4357.94873,4294.358887,4332.563965
4277.05127,4275.897461,4291.153809,4238.717773,4230.128418,4182.820313,4191.794922,4218.461426,4136.025879,4121.025879,4325.128418,4355.128418,4295.128418,4331.153809
4276.282227,4273.461426,4290.641113,4236.282227,4229.358887,4173.974121,4195.128418,4224.230957,4136.153809,4125.128418,4327.05127,4364.487305,4299.102539,4337.563965
4279.487305,4276.538574,4300.128418,4246.025879,4231.794922,4177.692383,4192.563965,4240.128418,4146.922852,4135.897461,4342.692383,4386.794922,4308.589844,4352.94873
4280.769043,4279.615234,4299.487305,4248.589844,4227.820313,4181.794922,4189.871582,4250.256348,4155,4144.615234,4344.615234,4391.538574,4309.871582,4357.179688
4277.820313,4277.307617,4292.820313,4244.615234,4218.589844,4173.717773,4189.615234,4247.820313,4153.589844,4150.128418,4338.717773,4383.589844,4311.153809,4353.205078
4280.128418,4274.230957,4298.077148,4249.102539,4217.94873,4170.769043,4188.846191,4249.102539,4156.153809,4156.282227,4349.487305,4384.230957,4318.589844,4356.922852
4281.538574,4272.820313,4296.153809,4251.794922,4215.641113,4174.487305,4183.846191,4253.333496,4160.512695,4157.179688,4350.128418,4379.487305,4316.153809,4356.410156
4275.897461,4267.179688,4283.461426,4244.871582,4202.436035,4175.897461,4183.589844,4252.820313,4160.128418,4154.871582,4329.615234,4373.077148,4306.666504,4350.128418
4276.410156,4263.205078,4286.922852,4246.025879,4199.358887,4181.538574,4192.94873,4250.897461,4156.666504,4156.410156,4327.692383,4385,4311.153809,4354.871582
4278.333496,4265.128418,4297.307617,4250.256348,4205.641113,4188.846191,4195.641113,4252.05127,4156.025879,4154.871582,4337.179688,4391.538574,4321.538574,4358.846191
4270.897461,4263.589844,4283.333496,4241.025879,4196.153809,4183.077148,4187.05127,4250,4153.717773,4146.153809,4313.333496,4371.538574,4308.333496,4347.692383
4261.410156,4259.102539,4259.487305,4226.794922,4180.384766,4172.05127,4181.153809,4239.358887,4142.94873,4135,4286.794922,4348.717773,4291.666504,4336.410156
4257.307617,4258.205078,4255.769043,4225.769043,4178.205078,4169.615234,4182.05127,4230.641113,4134.615234,4125,4296.025879,4343.077148,4296.922852,4336.410156
4250.128418,4252.436035,4259.487305,4231.410156,4183.846191,4173.717773,4182.94873,4235.512695,4136.153809,4112.179688,4287.307617,4343.717773,4279.743652,4329.358887
4245.384766,4244.615234,4256.282227,4231.410156,4180.384766,4172.563965,4179.743652,4231.794922,4128.846191,4100.897461,4254.743652,4337.05127,4253.333496,4319.358887
4258.717773,4250.256348,4265.641113,4231.794922,4172.05127,4169.487305,4175.641113,4216.025879,4116.922852,4102.94873,4268.205078,4337.436035,4282.692383,4330.897461
4280.128418,4255.384766,4286.153809,4236.922852,4175.641113,4171.410156,4181.025879,4221.794922,4121.025879,4110.512695,4306.282227,4361.410156,4327.436035,4357.820313
4284.230957,4242.307617,4289.230957,4236.282227,4182.563965,4171.922852,4187.307617,4235,4123.717773,4108.205078,4301.666504,4379.102539,4326.922852,4366.666504
4271.153809,4223.077148,4278.846191,4224.102539,4180.128418,4175.641113,4188.717773,4233.717773,4123.205078,4107.94873,4286.666504,4372.307617,4320,4354.743652
4264.230957,4213.717773,4273.077148,4216.025879,4179.102539,4185.641113,4194.487305,4240.384766,4134.615234,4124.743652,4301.538574,4371.025879,4328.717773,4351.538574
4263.333496,4216.922852,4272.436035,4217.563965,4185.897461,4188.205078,4196.666504,4254.230957,4143.846191,4139.230957,4313.461426,4382.563965,4331.410156,4355.512695
4256.922852,4217.94873,4272.436035,4212.436035,4180.512695,4179.871582,4188.205078,4252.563965,4146.538574,4135.769043,4312.436035,4382.563965,4327.692383,4347.94873
4247.307617,4207.436035,4265.897461,4199.871582,4168.717773,4171.794922,4178.077148,4244.230957,4151.282227,4136.282227,4309.871582,4370.897461,4319.743652,4338.461426
4239.358887,4199.102539,4257.563965,4190.384766,4166.794922,4169.230957,4174.871582,4246.538574,4154.615234,4151.922852,4307.692383,4367.692383,4319.230957,4340.384766
4232.820313,4198.974121,4254.230957,4185.769043,4162.563965,4169.358887,4176.025879,4253.205078,4159.487305,4160.384766,4317.563965,4369.615234,4327.05127,4341.666504
4232.820313,4200.128418,4252.820313,4187.307617,4159.102539,4168.205078,4174.615234,4256.666504,4168.846191,4156.410156,4329.743652,4366.922852,4330.512695,4336.794922
4233.205078,4200.384766,4245.769043,4189.487305,4164.358887,4165.769043,4168.846191,4253.077148,4173.589844,4156.282227,4323.589844,4354.102539,4332.563965,4335
4220.897461,4198.205078,4234.102539,4183.589844,4167.563965,4169.102539,4168.589844,4247.436035,4166.410156,4153.205078,4305.641113,4337.05127,4326.282227,4324.615234
4214.743652,4203.717773,4228.974121,4186.153809,4165.512695,4166.410156,4170.384766,4245.384766,4155.128418,4142.820313,4299.871582,4328.974121,4321.538574,4314.230957
4221.153809,4211.666504,4231.410156,4198.974121,4168.205078,4154.743652,4165,4245.512695,4151.025879,4139.871582,4296.666504,4326.025879,4320,4315.641113
4217.436035,4201.025879,4233.333496,4200,4168.974121,4155.769043,4164.615234,4244.743652,4152.692383,4136.153809,4284.358887,4324.230957,4302.94873,4313.461426
4220.256348,4200.641113,4241.794922,4197.692383,4170,4168.589844,4176.153809,4245.128418,4151.666504,4127.692383,4290.897461,4332.307617,4302.692383,4316.922852
4240.128418,4223.589844,4257.820313,4203.717773,4181.025879,4171.666504,4183.077148,4252.436035,4153.974121,4132.179688,4315.128418,4347.307617,4333.461426,4333.974121
4246.025879,4229.102539,4260.256348,4206.666504,4186.282227,4166.282227,4181.153809,4254.615234,4155.897461,4138.589844,4317.179688,4351.025879,4338.205078,4338.461426
4237.307617,4220.256348,4255.128418,4203.589844,4183.461426,4166.538574,4179.743652,4248.333496,4151.282227,4132.436035,4302.692383,4348.077148,4320.512695,4331.025879
4242.94873,4224.743652,4266.282227,4204.487305,4188.077148,4169.102539,4180.512695,4255.641113,4157.820313,4138.333496,4316.153809,4356.025879,4329.871582,4339.871582
4251.410156,4226.153809,4270.512695,4205.384766,4192.94873,4169.487305,4179.615234,4268.461426,4172.307617,4157.692383,4343.333496,4369.743652,4345.897461,4350.897461
4242.179688,4213.589844,4261.025879,4198.077148,4187.692383,4169.358887,4176.410156,4265.384766,4174.102539,4165.769043,4345.897461,4373.974121,4339.743652,4345
4234.871582,4206.538574,4264.102539,4189.230957,4185.384766,4170,4175,4253.974121,4172.05127,4167.05127,4340.512695,4369.743652,4334.615234,4339.230957
4235.128418,4204.230957,4268.846191,4187.179688,4188.717773,4170.641113,4174.487305,4248.461426,4173.077148,4171.153809,4345,4368.205078,4338.846191,4340.128418
4226.282227,4201.410156,4256.282227,4186.538574,4186.153809,4167.94873,4173.205078,4247.94873,4171.410156,4170.897461,4340.897461,4362.179688,4335.128418,4336.666504
4216.410156,4201.153809,4246.282227,4182.179688,4182.94873,4167.94873,4176.666504,4251.666504,4176.538574,4168.846191,4326.794922,4350.384766,4327.179688,4329.102539
4218.461426,4202.179688,4247.05127,4181.153809,4185.384766,4171.410156,4180.897461,4252.820313,4185.384766,4171.794922,4326.025879,4347.307617,4329.230957,4324.743652
4216.794922,4202.820313,4241.025879,4185.384766,4185.641113,4171.153809,4176.282227,4248.461426,4181.666504,4173.333496,4336.282227,4352.05127,4333.589844,4321.410156
4204.871582,4201.410156,4232.563965,4184.358887,4184.230957,4168.077148,4167.179688,4250.769043,4174.230957,4169.871582,4336.410156,4346.410156,4327.94873,4314.615234
4197.179688,4200,4223.205078,4176.666504,4184.871582,4168.077148,4169.102539,4251.922852,4173.333496,4163.333496,4317.179688,4325,4315.769043,4300.128418
4186.666504,4195.641113,4206.410156,4168.077148,4183.205078,4170.897461,4170,4238.974121,4167.94873,4150.641113,4290.769043,4305.128418,4301.538574,4280.256348
4180.256348,4190.897461,4203.461426,4163.846191,4186.794922,4170,4164.487305,4230.128418,4160.641113,4139.743652,4287.820313,4304.358887,4298.333496,4277.436035
4200.384766,4199.102539,4229.230957,4176.025879,4202.307617,4172.179688,4173.461426,4240.256348,4164.871582,4146.282227,4317.563965,4326.538574,4313.461426,4300.256348
4227.179688,4215.128418,4258.589844,4201.922852,4217.307617,4182.179688,4186.025879,4252.563965,4173.974121,4160.769043,4347.436035,4351.922852,4328.205078,4323.717773
4234.743652,4220.641113,4267.692383,4220,4219.743652,4181.538574,4183.077148,4250.512695,4169.871582,4156.410156,4342.692383,4353.717773,4326.025879,4328.333496
4231.538574,4221.410156,4266.025879,4218.077148,4218.589844,4171.282227,4172.179688,4240.641113,4155.512695,4136.410156,4310,4339.615234,4310.256348,4318.589844
4230.769043,4223.974121,4263.333496,4205.384766,4226.025879,4175.897461,4169.230957,4235.256348,4150.769043,4131.538574,4287.436035,4334.487305,4293.205078,4308.717773
4230.769043,4221.666504,4257.179688,4201.025879,4231.922852,4182.307617,4171.538574,4234.102539,4155.512695,4144.743652,4298.461426,4338.974121,4290.128418,4310.512695
4230.897461,4222.563965,4256.153809,4211.922852,4230.641113,4175.897461,4168.461426,4233.974121,4160.641113,4152.05127,4321.794922,4339.743652,4303.461426,4316.666504
4233.205078,4229.102539,4262.692383,4220.897461,4227.820313,4175.641113,4166.794922,4232.563965,4164.487305,4152.05127,4330.128418,4337.563965,4312.436035,4317.692383
4231.282227,4225.512695,4262.307617,4212.436035,4222.563965,4176.282227,4167.94873,4229.102539,4166.025879,4152.05127,4319.102539,4333.077148,4306.410156,4313.589844
4220.512695,4217.820313,4253.717773,4199.102539,4215.641113,4168.974121,4165.256348,4227.820313,4165.128418,4152.820313,4305.769043,4326.025879,4297.563965,4307.94873
4215.897461,4218.717773,4252.05127,4196.794922,4215.512695,4174.743652,4166.794922,4231.153809,4169.358887,4160.128418,4314.743652,4329.487305,4305.641113,4312.05127
4220,4222.307617,4256.538574,4200.384766,4218.333496,4187.692383,4176.794922,4235.897461,4178.205078,4173.974121,4343.974121,4342.179688,4328.077148,4324.487305
4218.717773,4223.077148,4255.769043,4201.153809,4217.436035,4181.922852,4176.153809,4233.205078,4181.666504,4176.538574,4359.743652,4346.282227,4336.025879,4325.897461
4216.282227,4223.846191,4252.436035,4203.205078,4218.077148,4172.692383,4166.794922,4231.282227,4182.179688,4170.384766,4350.641113,4339.871582,4332.05127,4318.589844
4218.205078,4222.05127,4248.717773,4205.384766,4217.05127,4177.692383,4172.307617,4239.487305,4183.589844,4172.307617,4337.436035,4329.743652,4329.102539,4313.205078
4213.717773,4213.589844,4244.487305,4199.743652,4217.436035,4185.256348,4182.307617,4248.077148,4186.153809,4174.871582,4330.897461,4326.538574,4318.974121,4307.179688
4214.871582,4215.128418,4249.487305,4199.358887,4226.922852,4185.256348,4181.153809,4250.128418,4186.153809,4169.230957,4337.820313,4332.94873,4313.077148,4308.333496
4235.769043,4238.077148,4268.077148,4218.589844,4234.871582,4184.358887,4182.05127,4244.871582,4185.384766,4167.94873,4350.384766,4340.512695,4330.128418,4324.358887
4252.563965,4255.897461,4285.641113,4237.563965,4234.102539,4192.179688,4188.077148,4237.94873,4184.743652,4170.256348,4350.897461,4345.512695,4340.512695,4337.563965
4249.102539,4249.743652,4283.077148,4232.820313,4235.897461,4201.282227,4188.205078,4232.307617,4179.230957,4164.487305,4342.436035,4346.922852,4320.769043,4330.769043
4242.436035,4239.102539,4274.871582,4221.025879,4242.436035,4198.717773,4184.615234,4232.307617,4177.820313,4159.615234,4336.794922,4344.230957,4307.563965,4318.974121
4247.307617,4245,4285.512695,4226.538574,4248.974121,4199.102539,4189.615234,4244.743652,4183.974121,4166.282227,4346.538574,4351.794922,4322.307617,4332.307617
4261.025879,4257.692383,4306.666504,4243.461426,4259.358887,4213.974121,4195,4250.384766,4187.05127,4179.358887,4369.743652,4371.538574,4339.743652,4359.230957
4269.230957,4259.487305,4310.512695,4251.153809,4268.205078,4217.307617,4190.256348,4239.615234,4184.487305,4185,4383.717773,4379.230957,4338.589844,4365.512695
4267.179688,4252.820313,4300.256348,4245.512695,4262.94873,4204.102539,4185.384766,4232.563965,4184.487305,4177.179688,4370.128418,4372.307617,4328.974121,4357.94873
4257.179688,4246.153809,4293.846191,4233.846191,4250.641113,4201.922852,4186.410156,4235.384766,4185.256348,4167.94873,4350.769043,4365.128418,4322.436035,4353.205078
4241.666504,4236.538574,4285.256348,4219.487305,4246.025879,4204.615234,4187.692383,4234.871582,4181.794922,4166.794922,4349.615234,4355.641113,4313.205078,4342.692383
4230.769043,4232.563965,4275.384766,4216.922852,4248.461426,4201.794922,4187.563965,4234.102539,4186.282227,4166.794922,4356.538574,4350.641113,4311.282227,4333.974121
4233.333496,4243.846191,4277.307617,4230.128418,4248.077148,4206.538574,4187.94873,4234.487305,4198.461426,4169.358887,4364.743652,4354.230957,4327.563965,4340.384766
4244.487305,4251.538574,4280.512695,4235.769043,4249.230957,4216.153809,4190.384766,4233.589844,4202.179688,4182.179688,4371.153809,4352.179688,4342.179688,4346.794922
4244.487305,4247.179688,4276.538574,4231.538574,4255.256348,4216.538574,4190.641113,4239.871582,4200.128418,4194.102539,4368.717773,4345.128418,4336.794922,4341.666504
4236.922852,4249.615234,4275.897461,4240.256348,4260.897461,4215.641113,4194.743652,4251.025879,4209.487305,4198.589844,4366.794922,4349.487305,4331.410156,4339.743652
4235.897461,4254.743652,4278.205078,4250.769043,4262.563965,4216.794922,4198.205078,4256.794922,4219.871582,4199.102539,4379.487305,4356.410156,4339.743652,4343.974121
4238.974121,4251.025879,4276.410156,4240,4264.615234,4215.769043,4192.563965,4256.794922,4214.358887,4198.205078,4387.94873,4354.487305,4346.153809,4343.205078
4237.179688,4247.05127,4277.692383,4231.282227,4265.128418,4217.307617,4191.922852,4251.282227,4210.384766,4200.641113,4376.922852,4349.230957,4343.846191,4337.307617
4230.384766,4247.436035,4278.846191,4240.512695,4265,4217.94873,4196.282227,4248.077148,4216.153809,4201.922852,4372.820313,4343.333496,4339.487305,4330.897461
4231.794922,4247.563965,4281.282227,4248.205078,4271.538574,4217.436035,4197.05127,4254.615234,4218.461426,4199.230957,4382.05127,4346.153809,4338.589844,4332.179688
4245.769043,4250.256348,4294.615234,4247.692383,4278.717773,4224.230957,4200.384766,4261.282227,4217.94873,4198.589844,4383.205078,4357.94873,4339.743652,4345.897461
4257.436035,4259.358887,4306.025879,4249.358887,4280.256348,4233.974121,4208.846191,4264.102539,4220.641113,4202.179688,4380,4365.384766,4337.307617,4357.179688
4252.563965,4256.922852,4300,4249.487305,4276.282227,4234.102539,4206.922852,4262.179688,4219.615234,4198.974121,4377.692383,4361.153809,4328.205078,4349.871582
4242.179688,4247.307617,4287.563965,4243.846191,4273.333496,4230.256348,4198.846191,4251.922852,4212.94873,4185.128418,4371.153809,4348.974121,4321.025879,4337.563965
4245.384766,4253.077148,4289.230957,4245.128418,4279.230957,4231.922852,4201.153809,4246.153809,4211.922852,4182.05127,4369.358887,4346.794922,4322.692383,4342.05127
4256.666504,4266.025879,4301.153809,4256.282227,4285.897461,4234.230957,4202.94873,4247.436035,4218.333496,4195.256348,4381.282227,4357.692383,4328.461426,4356.410156
4264.102539,4268.205078,4307.820313,4263.333496,4286.538574,4231.922852,4197.94873,4245.128418,4217.94873,4200.384766,4392.820313,4364.358887,4342.436035,4365.256348
4267.563965,4267.179688,4310.769043,4264.743652,4288.205078,4230.641113,4193.717773,4242.307617,4213.205078,4197.436035,4399.358887,4365.897461,4357.179688,4371.666504
4272.436035,4275.769043,4314.743652,4273.461426,4296.025879,4234.615234,4199.871582,4247.307617,4215.128418,4206.153809,4404.102539,4370.384766,4357.179688,4378.589844
4274.358887,4279.230957,4316.538574,4282.820313,4298.205078,4235.897461,4205.897461,4250.384766,4219.230957,4216.410156,4402.692383,4366.410156,4353.846191,4378.846191
4269.358887,4269.743652,4311.025879,4279.487305,4288.974121,4232.820313,4198.589844,4247.05127,4217.692383,4215.128418,4400.512695,4355.769043,4358.077148,4373.333496
4263.333496,4263.461426,4302.307617,4274.102539,4281.538574,4233.333496,4198.077148,4250.384766,4218.717773,4216.538574,4406.282227,4354.358887,4360.128418,4371.538574
4254.615234,4262.05127,4291.538574,4273.461426,4281.922852,4237.179688,4204.358887,4251.922852,4222.94873,4220.641113,4402.05127,4351.666504,4351.025879,4366.794922
4241.666504,4252.307617,4278.077148,4265.128418,4282.179688,4241.153809,4201.410156,4237.820313,4218.333496,4218.589844,4377.820313,4335.384766,4340.769043,4351.666504
4239.358887,4242.692383,4271.410156,4256.538574,4273.589844,4242.820313,4198.205078,4227.692383,4215.769043,4221.025879,4369.615234,4326.794922,4340.384766,4346.282227
4244.615234,4243.974121,4274.487305,4258.205078,4268.461426,4244.358887,4201.794922,4234.487305,4228.205078,4231.794922,4383.205078,4337.05127,4345.256348,4352.05127
4238.846191,4242.94873,4275.769043,4260.384766,4272.692383,4247.820313,4203.461426,4237.563965,4231.025879,4237.94873,4383.846191,4342.820313,4344.487305,4350.384766
4232.692383,4242.307617,4274.743652,4264.230957,4275.897461,4246.666504,4200.128418,4231.794922,4219.230957,4231.410156,4373.974121,4340.641113,4339.102539,4346.794922
4241.410156,4247.692383,4281.922852,4273.589844,4277.307617,4241.025879,4198.717773,4233.461426,4222.179688,4231.153809,4380.641113,4348.333496,4346.666504,4356.025879
4249.871582,4251.025879,4289.358887,4278.846191,4279.487305,4242.94873,4196.666504,4237.563965,4235.641113,4244.871582,4392.307617,4359.102539,4358.461426,4366.794922
4248.974121,4250.512695,4288.461426,4278.461426,4285,4249.743652,4202.820313,4235.256348,4233.333496,4245.769043,4390,4357.563965,4354.487305,4364.743652
4244.230957,4244.743652,4285,4278.589844,4293.077148,4249.358887,4213.205078,4237.436035,4228.589844,4233.974121,4385.897461,4352.05127,4345.641113,4359.871582
4237.179688,4247.05127,4283.333496,4280.641113,4296.922852,4248.077148,4211.922852,4243.077148,4231.282227,4229.230957,4381.794922,4348.333496,4342.692383,4357.692383
4238.461426,4255.256348,4286.025879,4280.641113,4295,4249.487305,4208.589844,4245.641113,4232.436035,4231.794922,4382.563965,4348.974121,4342.820313,4361.666504
4241.666504,4229.871582,4291.153809,4268.205078,4290.512695,4250,4217.436035,4249.743652,4237.307617,4240.256348,4393.974121,4361.794922,4346.025879,4371.282227
4237.820313,4214.487305,4294.102539,4262.692383,4292.307617,4253.974121,4227.179688,4252.307617,4240.128418,4246.153809,4397.563965,4372.692383,4352.94873,4376.153809
4242.179688,4258.974121,4296.794922,4282.820313,4299.358887,4260.384766,4227.692383,4249.358887,4235.256348,4238.974121,4390.769043,4371.025879,4354.358887,4377.820313
4252.820313,4291.410156,4298.717773,4299.230957,4304.743652,4263.205078,4231.153809,4245.641113,4232.563965,4230.384766,4386.410156,4367.179688,4342.820313,4381.153809
4251.282227,4281.025879,4299.102539,4294.743652,4307.692383,4263.846191,4236.153809,4248.717773,4234.743652,4232.436035,4383.077148,4368.846191,4326.922852,4381.153809
4246.538574,4286.538574,4298.846191,4293.333496,4311.410156,4264.743652,4231.666504,4257.307617,4240.256348,4237.94873,4385,4370.256348,4320.897461,4378.717773
4251.025879,4296.794922,4298.846191,4298.461426,4311.025879,4264.358887,4227.05127,4262.563965,4246.666504,4244.230957,4392.563965,4367.436035,4330.512695,4382.179688
4254.743652,4283.974121,4306.153809,4300.128418,4311.538574,4264.102539,4230.641113,4267.436035,4249.487305,4249.230957,4398.974121,4372.05127,4338.846191,4391.153809
4256.794922,4283.077148,4315.769043,4303.589844,4321.922852,4268.205078,4236.025879,4271.922852,4249.871582,4249.487305,4403.461426,4383.589844,4335.256348,4396.666504
4248.846191,4286.025879,4306.666504,4302.436035,4322.563965,4270.256348,4232.692383,4269.615234,4251.538574,4248.974121,4397.692383,4380.128418,4332.05127,4390.512695
4233.846191,4272.307617,4287.307617,4291.153809,4310.256348,4264.871582,4230.512695,4265,4250.897461,4249.487305,4387.179688,4361.025879,4333.589844,4374.743652
4228.333496,4264.358887,4279.230957,4281.922852,4311.282227,4265.641113,4238.461426,4264.871582,4249.743652,4245.641113,4390.128418,4349.358887,4331.666504,4363.589844
4227.563965,4265.256348,4277.05127,4279.487305,4319.615234,4275.384766,4246.922852,4265.641113,4250.512695,4235.128418,4391.538574,4347.05127,4326.410156,4360.897461
4227.563965,4264.871582,4276.282227,4280.256348,4318.589844,4280.256348,4249.487305,4267.94873,4248.333496,4226.922852,4379.487305,4347.436035,4324.743652,4363.205078
4231.282227,4264.871582,4277.563965,4279.743652,4320.769043,4278.333496,4250.256348,4273.077148,4247.94873,4227.820313,4376.410156,4350.128418,4325.128418,4366.666504
4232.05127,4264.230957,4275.512695,4280,4326.666504,4277.94873,4248.846191,4269.743652,4249.358887,4229.487305,4382.436035,4343.461426,4326.025879,4364.102539
4228.589844,4252.692383,4277.307617,4276.794922,4326.538574,4278.974121,4251.153809,4264.743652,4247.436035,4225.512695,4382.05127,4339.871582,4317.692383,4361.538574
4236.282227,4249.230957,4290.128418,4276.794922,4331.538574,4282.05127,4258.846191,4272.820313,4253.333496,4231.282227,4393.974121,4358.461426,4313.974121,4376.282227
4247.94873,4266.025879,4301.538574,4287.307617,4335.897461,4282.307617,4257.563965,4285.641113,4270.641113,4252.436035,4425.897461,4378.589844,4344.358887,4396.410156
4252.820313,4272.94873,4310,4292.307617,4332.05127,4279.358887,4256.410156,4289.102539,4281.153809,4270.897461,4449.358887,4384.615234,4375,4403.717773
4256.922852,4267.05127,4313.846191,4290.897461,4335.769043,4284.615234,4262.307617,4284.615234,4280.512695,4277.820313,4446.282227,4385,4366.538574,4403.717773
4256.922852,4266.025879,4305.769043,4293.974121,4343.974121,4290,4261.025879,4280.641113,4281.025879,4277.05127,4432.820313,4384.358887,4353.461426,4401.666504
4255.128418,4266.282227,4304.102539,4296.025879,4342.05127,4284.102539,4257.692383,4276.794922,4280.769043,4268.589844,4427.94873,4378.589844,4357.05127,4395.384766
4260.512695,4266.410156,4315.512695,4298.205078,4339.871582,4277.563965,4260.384766,4274.615234,4278.589844,4263.846191,4437.436035,4377.820313,4355.897461,4396.025879
4269.102539,4270.897461,4321.666504,4305.641113,4343.717773,4282.179688,4263.461426,4281.666504,4282.692383,4276.666504,4451.922852,4388.461426,4359.230957,4407.179688
4263.717773,4267.307617,4311.410156,4303.077148,4343.461426,4287.692383,4259.358887,4281.410156,4283.461426,4280.512695,4437.563965,4382.05127,4358.974121,4400
4250.384766,4260,4295,4290.256348,4344.871582,4286.922852,4256.282227,4266.025879,4277.563965,4264.230957,4405.641113,4355.897461,4338.333496,4376.922852
4244.871582,4263.077148,4288.974121,4290.897461,4350.897461,4288.974121,4257.820313,4265.128418,4277.179688,4257.436035,4403.846191,4345.512695,4328.974121,4372.05127
4247.692383,4265.512695,4292.05127,4297.436035,4352.94873,4293.589844,4254.358887,4278.974121,4280.769043,4261.794922,4415,4352.179688,4340.512695,4377.94873
4248.717773,4265,4290.641113,4296.666504,4349.358887,4294.358887,4249.102539,4280.512695,4281.025879,4261.025879,4410.641113,4349.358887,4344.102539,4374.743652
4246.153809,4266.666504,4288.589844,4297.179688,4349.358887,4293.333496,4250.769043,4280.512695,4280.512695,4260.128418,4414.230957,4347.563965,4337.179688,4372.563965
4252.436035,4270.769043,4297.820313,4305.641113,4356.153809,4297.563965,4258.205078,4286.410156,4281.794922,4264.102539,4435.641113,4361.794922,4344.358887,4380.897461
4260.769043,4275.897461,4301.282227,4310.256348,4359.871582,4301.666504,4260.641113,4285.128418,4281.922852,4265.641113,4448.205078,4369.487305,4361.282227,4389.871582
4259.102539,4277.05127,4294.743652,4306.666504,4358.333496,4297.436035,4253.077148,4280.512695,4280.897461,4264.230957,4444.871582,4359.102539,4363.333496,4390.384766
4258.205078,4279.102539,4295.512695,4307.563965,4355.256348,4296.666504,4244.615234,4277.307617,4283.333496,4264.615234,4443.333496,4351.794922,4359.358887,4387.05127
4262.820313,4284.743652,4301.538574,4315.128418,4353.077148,4300.256348,4243.333496,4266.666504,4283.077148,4266.282227,4447.692383,4356.794922,4360.769043,4388.077148
4267.307617,4285.256348,4307.307617,4320.256348,4353.974121,4300.769043,4244.358887,4261.794922,4279.102539,4264.615234,4447.436035,4363.717773,4360.512695,4395.512695
4273.077148,4289.615234,4311.922852,4320.769043,4359.358887,4301.025879,4241.794922,4270.512695,4281.025879,4263.205078,4441.666504,4366.538574,4358.589844,4399.871582
4280.128418,4295.256348,4313.974121,4319.230957,4360.384766,4302.05127,4244.743652,4271.153809,4283.333496,4264.230957,4440.897461,4362.436035,4360.769043,4400
4280.641113,4287.05127,4313.589844,4318.846191,4356.538574,4304.487305,4251.025879,4264.615234,4280.128418,4257.94873,4442.94873,4355.769043,4355.641113,4401.538574
4277.820313,4284.358887,4313.974121,4321.282227,4362.05127,4307.05127,4251.153809,4263.461426,4277.820313,4247.692383,4436.922852,4351.922852,4347.436035,4399.743652
4277.179688,4298.589844,4309.487305,4322.05127,4368.846191,4306.153809,4249.487305,4264.615234,4280.256348,4250.512695,4423.333496,4346.666504,4350.256348,4390.897461
4276.666504,4302.436035,4302.563965,4320.128418,4366.282227,4305.128418,4254.487305,4272.436035,4287.179688,4265.128418,4427.94873,4345,4357.179688,4391.794922
4277.436035,4294.230957,4303.846191,4320.256348,4365.769043,4310,4261.025879,4283.589844,4295.897461,4276.538574,4454.230957,4349.230957,4366.922852,4404.743652
4279.743652,4296.025879,4305.256348,4319.487305,4369.487305,4312.307617,4256.410156,4276.410156,4297.563965,4278.717773,4466.282227,4349.487305,4373.077148,4406.538574
4279.358887,4297.94873,4304.358887,4319.871582,4368.846191,4307.179688,4252.94873,4267.563965,4293.974121,4277.820313,4460.384766,4348.205078,4369.743652,4400.384766
4279.743652,4295.897461,4304.358887,4325.256348,4367.436035,4308.205078,4261.922852,4276.794922,4296.153809,4278.077148,4460.897461,4350.384766,4372.692383,4403.846191
4279.487305,4298.205078,4302.692383,4326.922852,4367.94873,4312.563965,4262.820313,4275.256348,4296.153809,4277.94873,4463.717773,4344.743652,4378.846191,4403.333496
4277.179688,4297.563965,4298.333496,4324.102539,4367.307617,4314.358887,4255,4268.461426,4298.077148,4277.820313,4463.077148,4338.589844,4373.717773,4394.487305
4279.615234,4295.769043,4298.974121,4325,4371.153809,4318.077148,4261.410156,4279.487305,4309.615234,4278.846191,4468.974121,4347.820313,4371.666504,4396.025879
4283.846191,4295.641113,4306.282227,4323.205078,4375.128418,4323.333496,4272.436035,4292.436035,4316.794922,4282.820313,4476.282227,4360,4380.769043,4407.05127
4280.641113,4288.077148,4306.410156,4314.743652,4372.692383,4322.179688,4270.256348,4293.589844,4313.717773,4284.230957,4472.436035,4357.179688,4379.102539,4405.384766
4276.794922,4280.769043,4302.692383,4319.358887,4372.563965,4320.384766,4267.94873,4293.333496,4310.897461,4281.410156,4460.641113,4349.615234,4367.307617,4396.025879
4281.922852,4290.384766,4306.410156,4332.692383,4380.512695,4330.512695,4275.641113,4297.94873,4316.025879,4278.846191,4456.282227,4354.358887,4363.846191,4398.974121
4287.307617,4297.307617,4315,4331.025879,4388.205078,4336.794922,4284.358887,4300.256348,4318.974121,4275.128418,4463.077148,4365.769043,4362.692383,4405.512695
4289.615234,4284.358887,4319.358887,4324.871582,4387.179688,4329.871582,4283.077148,4298.461426,4312.307617,4266.282227,4460.641113,4371.282227,4350.897461,4403.077148
4292.436035,4274.358887,4320.641113,4330.769043,4386.794922,4326.025879,4277.307617,4290.384766,4302.436035,4257.94873,4453.974121,4373.461426,4338.333496,4404.102539
4295.641113,4282.692383,4326.025879,4337.820313,4394.230957,4330.256348,4276.794922,4286.410156,4303.205078,4266.538574,4465,4378.846191,4345.512695,4413.846191
4303.077148,4292.179688,4329.743652,4338.333496,4399.102539,4332.436035,4277.05127,4290,4311.538574,4285,4482.820313,4382.563965,4368.461426,4421.025879
4309.487305,4292.563965,4332.307617,4343.717773,4401.410156,4334.487305,4275.512695,4292.436035,4312.563965,4292.179688,4495.769043,4384.358887,4380.384766,4425.641113
4313.589844,4298.461426,4338.461426,4355.512695,4410,4339.871582,4274.358887,4291.153809,4313.333496,4291.538574,4507.94873,4386.282227,4383.589844,4431.922852
4315.256348,4306.282227,4341.153809,4359.487305,4417.307617,4342.05127,4276.794922,4293.333496,4323.846191,4300.512695,4515.641113,4384.230957,4394.743652,4435
4307.436035,4302.692383,4330.256348,4355.128418,4414.102539,4340.384766,4282.436035,4297.94873,4329.487305,4308.974121,4508.846191,4377.563965,4396.410156,4428.333496
4294.230957,4294.871582,4315,4348.717773,4411.025879,4338.846191,4280,4289.871582,4321.666504,4301.025879,4493.461426,4365.512695,4380.641113,4413.717773
4289.871582,4293.077148,4310.384766,4342.05127,4410.769043,4339.487305,4269.743652,4283.589844,4320.256348,4292.820313,4486.538574,4357.307617,4375.256348,4408.077148
4295,4295.512695,4312.05127,4341.282227,4410.769043,4341.025879,4273.333496,4291.922852,4327.563965,4294.487305,4491.794922,4359.102539,4383.846191,4414.102539
4295.128418,4293.974121,4310.384766,4344.230957,4412.94873,4345.128418,4284.871582,4294.615234,4327.820313,4294.743652,4494.230957,4359.871582,4380.256348,4414.487305
4294.102539,4290.384766,4311.153809,4344.230957,4413.717773,4352.05127,4285.256348,4288.077148,4325.384766,4292.436035,4485,4358.846191,4370.641113,4409.102539
4303.333496,4298.077148,4320,4351.794922,4416.666504,4352.692383,4286.538574,4288.077148,4327.179688,4294.102539,4482.820313,4366.025879,4373.589844,4416.538574
4315.641113,4310.512695,4329.743652,4363.974121,4423.077148,4349.102539,4293.974121,4293.846191,4326.794922,4298.333496,4492.05127,4374.102539,4382.94873,4431.025879
4327.05127,4313.589844,4339.743652,4366.025879,4426.794922,4355.256348,4295.128418,4295.384766,4328.846191,4305,4507.820313,4381.666504,4393.205078,4440.769043
4337.820313,4317.692383,4349.487305,4366.794922,4429.487305,4364.102539,4297.307617,4296.794922,4336.025879,4314.743652,4530.384766,4395.897461,4406.794922,4452.692383
4341.794922,4323.461426,4352.05127,4371.794922,4428.205078,4358.077148,4300.769043,4295.256348,4333.846191,4313.461426,4538.717773,4400.641113,4413.333496,4458.205078
4337.179688,4318.717773,4349.230957,4368.589844,4420.897461,4348.077148,4295.897461,4292.307617,4324.615234,4301.666504,4528.589844,4392.179688,4405,4454.615234
4338.974121,4315.512695,4350.256348,4368.333496,4421.794922,4350,4291.538574,4291.282227,4322.05127,4299.102539,4523.461426,4392.692383,4398.333496,4455.512695
4346.153809,4320.512695,4352.692383,4377.436035,4430.897461,4352.692383,4294.358887,4290.897461,4324.487305,4305,4526.794922,4399.230957,4401.153809,4457.436035
4342.94873,4318.974121,4348.717773,4373.846191,4430.128418,4351.025879,4294.871582,4291.410156,4325.897461,4305,4523.717773,4394.358887,4400.512695,4451.282227
4335.128418,4315.512695,4345.128418,4364.743652,4425.128418,4358.974121,4298.974121,4298.461426,4330.769043,4307.436035,4522.563965,4388.205078,4395.641113,4447.94873
4333.974121,4315.128418,4342.307617,4366.153809,4431.922852,4370,4307.820313,4310.128418,4340.897461,4321.282227,4524.615234,4390.897461,4396.410156,4449.230957
4333.333496,4311.025879,4338.461426,4367.307617,4432.692383,4367.436035,4305.512695,4308.589844,4344.743652,4330.897461,4518.205078,4390,4399.743652,4445.128418
4326.410156,4302.563965,4332.05127,4361.538574,4417.94873,4358.974121,4297.820313,4296.410156,4338.461426,4325.256348,4504.487305,4381.153809,4394.487305,4439.102539
4320.384766,4296.410156,4323.333496,4359.743652,4409.102539,4358.974121,4300.256348,4291.153809,4332.179688,4319.102539,4491.666504,4371.538574,4388.974121,4434.871582
4323.333496,4299.871582,4322.692383,4367.94873,4412.563965,4360.512695,4299.615234,4295.512695,4333.589844,4321.922852,4495.897461,4368.461426,4393.717773,4437.820313
4330.897461,4304.358887,4330.384766,4375.897461,4412.307617,4356.282227,4293.974121,4296.153809,4337.307617,4326.410156,4509.743652,4374.102539,4398.589844,4446.794922
4336.282227,4307.179688,4335.641113,4382.05127,4408.333496,4358.974121,4301.538574,4295.769043,4340.769043,4331.025879,4511.794922,4382.563965,4404.487305,4454.102539
4336.794922,4311.538574,4334.487305,4386.025879,4410.384766,4364.358887,4307.05127,4300.256348,4343.077148,4333.077148,4508.846191,4386.025879,4410,4460.128418
4337.563965,4308.333496,4335.256348,4383.205078,4410.641113,4359.358887,4297.563965,4294.358887,4334.743652,4326.282227,4509.102539,4381.794922,4405.897461,4460.897461
4337.820313,4300.384766,4336.025879,4375.897461,4405.641113,4353.974121,4298.461426,4289.230957,4329.102539,4324.487305,4504.487305,4380.384766,4399.358887,4458.846191
4332.692383,4296.410156,4329.871582,4369.102539,4400.256348,4355,4311.666504,4301.794922,4337.05127,4332.307617,4506.153809,4386.410156,4401.025879,4460.897461
4330.769043,4295.384766,4326.153809,4366.153809,4401.410156,4356.538574,4316.025879,4314.230957,4345.769043,4335.512695,4517.307617,4390.384766,4408.974121,4463.077148
4335,4296.794922,4329.230957,4367.307617,4409.102539,4356.922852,4313.589844,4313.974121,4349.230957,4333.717773,4513.717773,4389.102539,4412.820313,4463.717773
4336.282227,4298.717773,4327.436035,4367.179688,4412.94873,4360,4316.922852,4310.769043,4348.846191,4334.487305,4502.563965,4386.922852,4406.922852,4461.794922
4335,4297.05127,4323.589844,4365,4412.05127,4363.333496,4320.128418,4312.436035,4346.538574,4333.846191,4504.358887,4388.077148,4403.589844,4458.333496
4336.666504,4295.641113,4328.846191,4364.230957,4412.05127,4362.179688,4315.641113,4312.563965,4342.94873,4332.94873,4511.153809,4388.974121,4410.641113,4464.615234
4340.128418,4297.436035,4333.717773,4365.384766,4414.743652,4359.487305,4312.436035,4305.384766,4342.94873,4336.282227,4512.179688,4392.05127,4415.897461,4474.487305
4339.743652,4297.436035,4332.94873,4365.641113,4415.641113,4359.743652,4316.410156,4298.589844,4343.717773,4337.563965,4513.461426,4398.077148,4416.410156,4471.153809
4333.333496,4296.410156,4328.333496,4365.128418,4414.743652,4356.282227,4314.102539,4295.641113,4337.820313,4331.282227,4510.769043,4390.512695,4415.897461,4461.410156
4328.974121,4297.05127,4320.128418,4365.641113,4412.563965,4348.717773,4305.128418,4293.717773,4332.307617,4322.563965,4506.666504,4376.538574,4410.512695,4456.538574
4329.743652,4301.025879,4316.410156,4368.846191,4407.307617,4350,4310,4297.692383,4335.512695,4322.692383,4509.102539,4378.333496,4408.846191,4452.307617
4321.666504,4298.461426,4312.692383,4364.487305,4400,4354.358887,4320.897461,4301.025879,4339.230957,4324.487305,4499.358887,4379.102539,4406.666504,4442.820313
4308.846191,4283.846191,4301.410156,4352.307617,4394.230957,4349.615234,4319.358887,4295.128418,4333.461426,4315.384766,4480.128418,4367.307617,4396.282227,4434.615234
4309.102539,4278.333496,4300.384766,4350,4396.025879,4348.589844,4320.384766,4301.794922,4334.743652,4312.05127,4483.974121,4372.179688,4393.077148,4435.897461
4316.025879,4285.128418,4312.563965,4357.307617,4404.230957,4358.589844,4330.384766,4320.256348,4349.230957,4323.461426,4507.436035,4387.692383,4400.897461,4445.641113
4317.307617,4282.692383,4313.461426,4359.358887,4412.179688,4363.461426,4331.410156,4316.538574,4351.922852,4329.487305,4511.666504,4383.461426,4403.333496,4447.94873
4320.128418,4280,4309.230957,4357.179688,4413.974121,4358.333496,4323.461426,4304.487305,4341.410156,4325,4501.922852,4375.769043,4398.077148,4442.307617
4324.230957,4286.922852,4314.871582,4356.922852,4411.922852,4357.436035,4323.077148,4310.641113,4340.512695,4324.871582,4503.461426,4379.871582,4397.563965,4442.179688
4320.256348,4288.205078,4318.846191,4355.897461,4418.461426,4362.179688,4326.025879,4315.769043,4350,4329.230957,4508.974121,4380.512695,4405.641113,4446.538574
4321.666504,4286.794922,4317.820313,4358.205078,4426.922852,4363.846191,4323.077148,4309.871582,4350.512695,4324.230957,4512.307617,4379.358887,4408.333496,4451.794922
4333.077148,4293.333496,4325.512695,4363.205078,4426.538574,4363.974121,4323.846191,4311.025879,4346.666504,4321.538574,4519.743652,4390,4403.333496,4460.512695
4342.563965,4297.94873,4337.692383,4365.641113,4427.307617,4368.974121,4333.333496,4325.769043,4358.333496,4334.615234,4528.333496,4402.05127,4410.384766,4469.743652
4340.641113,4295.128418,4335.512695,4366.410156,4430,4368.589844,4336.666504,4328.333496,4363.974121,4338.461426,4522.94873,4396.410156,4417.05127,4466.410156
4335.384766,4294.487305,4327.563965,4365.769043,4426.538574,4361.282227,4328.589844,4313.077148,4350.128418,4323.333496,4509.743652,4383.846191,4406.666504,4456.666504
4341.922852,4302.179688,4334.487305,4368.846191,4426.666504,4362.179688,4326.282227,4310.769043,4345.512695,4322.05127,4506.666504,4386.666504,4406.666504,4461.538574
4350.769043,4309.743652,4340.512695,4375.128418,4432.692383,4368.717773,4331.153809,4318.333496,4350.384766,4329.743652,4511.922852,4395,4412.307617,4469.615234
4344.871582,4308.717773,4332.307617,4379.487305,4432.436035,4367.94873,4333.333496,4311.794922,4345.256348,4316.794922,4509.615234,4390.512695,4401.025879,4462.05127
4337.436035,4308.461426,4327.94873,4380.128418,4436.025879,4365.897461,4333.205078,4310.641113,4342.94873,4312.05127,4502.307617,4382.692383,4400.641113,4455.128418
4340.512695,4313.846191,4326.538574,4378.205078,4442.563965,4369.358887,4333.333496,4324.358887,4354.230957,4332.05127,4513.333496,4382.307617,4416.794922,4462.94873
4333.333496,4307.563965,4312.05127,4368.846191,4433.077148,4362.94873,4326.666504,4321.025879,4352.820313,4333.589844,4522.179688,4376.153809,4414.487305,4459.102539
4320.897461,4295.128418,4305.256348,4356.282227,4419.487305,4349.230957,4318.717773,4308.205078,4342.05127,4318.589844,4509.102539,4369.615234,4405.769043,4447.05127
4330.641113,4294.102539,4317.563965,4354.487305,4418.077148,4351.025879,4320.384766,4313.974121,4346.922852,4322.563965,4506.025879,4381.666504,4413.846191,4455.384766
4347.179688,4296.538574,4328.974121,4358.077148,4421.922852,4356.153809,4323.333496,4317.94873,4353.333496,4333.846191,4525.512695,4395,4419.615234,4471.666504
4346.922852,4294.487305,4328.974121,4358.077148,4425.256348,4351.666504,4322.05127,4303.717773,4346.410156,4328.333496,4529.358887,4391.153809,4416.794922,4467.563965
4339.871582,4294.487305,4325.512695,4359.615234,4428.589844,4350.128418,4317.94873,4292.307617,4337.436035,4316.282227,4516.794922,4381.538574,4419.102539,4455.897461
4345.641113,4300.384766,4332.05127,4366.922852,4431.282227,4353.589844,4316.153809,4296.922852,4342.05127,4321.666504,4527.436035,4389.102539,4428.205078,4467.05127
4355.512695,4305.641113,4345.384766,4368.589844,4430,4349.743652,4318.589844,4305.769043,4351.153809,4337.820313,4543.333496,4405.256348,4434.230957,4482.563965
4352.94873,4306.922852,4345.384766,4366.282227,4430,4350.512695,4322.692383,4310.128418,4351.794922,4341.025879,4539.743652,4404.230957,4427.94873,4478.461426
4347.179688,4303.589844,4337.820313,4371.922852,4438.846191,4361.025879,4324.615234,4311.922852,4348.717773,4330,4532.563965,4394.358887,4420.256348,4470.384766
4346.025879,4301.153809,4334.487305,4371.282227,4440.384766,4361.153809,4321.025879,4312.436035,4344.358887,4316.666504,4529.487305,4388.974121,4420.641113,4468.589844
4336.794922,4295.512695,4330.512695,4359.487305,4433.205078,4355.256348,4320.128418,4311.410156,4341.153809,4308.077148,4516.153809,4389.743652,4405.641113,4456.794922
4326.666504,4288.717773,4327.94873,4355,4432.94873,4357.436035,4326.153809,4313.589844,4339.743652,4306.794922,4502.307617,4394.102539,4380.512695,4444.743652
4333.461426,4294.230957,4329.230957,4359.230957,4434.487305,4359.615234,4328.974121,4315.897461,4342.94873,4310.641113,4508.077148,4392.563965,4393.205078,4451.025879
4342.563965,4301.538574,4329.358887,4359.102539,4433.717773,4357.820313,4326.794922,4314.230957,4348.461426,4311.794922,4520.256348,4385.128418,4428.846191,4460
4340.897461,4294.230957,4332.94873,4357.94873,4435.512695,4358.589844,4330.512695,4317.94873,4352.436035,4316.025879,4525.769043,4387.307617,4432.820313,4461.922852
4338.461426,4280.897461,4336.410156,4358.846191,4434.487305,4360.897461,4330.256348,4317.563965,4349.871582,4321.666504,4525.897461,4395.256348,4422.179688,4460.641113
4340.512695,4281.153809,4330.384766,4355.641113,4429.615234,4357.820313,4318.974121,4303.205078,4339.871582,4315.769043,4523.077148,4391.153809,4427.820313,4460.641113
4344.487305,4291.666504,4327.307617,4353.589844,4431.410156,4354.102539,4315.769043,4298.333496,4336.666504,4307.436035,4523.974121,4387.179688,4427.563965,4465.128418
4350.769043,4297.563965,4336.153809,4357.820313,4437.179688,4357.436035,4322.563965,4309.871582,4341.794922,4310.641113,4532.179688,4397.692383,4424.615234,4473.461426
4357.179688,4300.128418,4344.743652,4365.769043,4443.717773,4365.897461,4328.205078,4315.128418,4344.743652,4321.666504,4541.666504,4408.205078,4440.769043,4482.94873
4358.717773,4303.461426,4343.205078,4370,4446.025879,4365.897461,4328.846191,4310,4344.102539,4325.769043,4545.128418,4407.05127,4447.692383,4484.743652
4352.820313,4304.743652,4333.333496,4363.846191,4441.025879,4358.205078,4322.94873,4306.025879,4342.179688,4318.974121,4542.820313,4395.512695,4432.307617,4476.410156
4346.025879,4297.307617,4328.461426,4356.794922,4439.615234,4356.922852,4319.102539,4307.436035,4340.128418,4311.282227,4535.128418,4389.743652,4423.589844,4468.205078
4346.922852,4294.743652,4332.820313,4361.666504,4442.436035,4359.230957,4319.230957,4312.563965,4341.153809,4310.641113,4531.922852,4394.871582,4425.256348,4468.461426
4348.333496,4300.256348,4333.205078,4367.436035,4442.94873,4354.871582,4313.589844,4308.461426,4340.897461,4313.205078,4537.05127,4394.230957,4417.436035,4466.025879
4340.128418,4297.436035,4324.871582,4359.358887,4441.025879,4347.179688,4309.871582,4298.974121,4335.897461,4309.230957,4535.641113,4384.615234,4408.461426,4455
4334.871582,4291.666504,4324.743652,4354.743652,4440.256348,4352.563965,4321.794922,4309.615234,4339.230957,4307.692383,4530.897461,4389.102539,4416.538574,4455.641113
4348.077148,4298.205078,4339.615234,4368.974121,4443.974121,4364.230957,4330.897461,4325,4350.256348,4317.94873,4542.179688,4407.692383,4428.717773,4470.128418
4362.307617,4304.230957,4348.205078,4378.846191,4445.897461,4362.05127,4325.384766,4316.794922,4348.846191,4320.769043,4552.94873,4408.589844,4427.692383,4477.94873
4362.179688,4302.05127,4348.461426,4376.153809,4446.282227,4356.538574,4326.410156,4307.692383,4343.461426,4313.974121,4547.820313,4400.641113,4427.179688,4477.436035
4354.487305,4295.641113,4344.615234,4370.512695,4446.922852,4358.205078,4330,4308.974121,4340.512695,4308.077148,4539.487305,4397.436035,4430.512695,4473.589844
4345.128418,4287.179688,4333.717773,4360.384766,4441.538574,4354.871582,4320.897461,4302.307617,4331.025879,4300.384766,4537.307617,4386.666504,4421.025879,4464.871582
4341.922852,4286.282227,4328.077148,4354.743652,4436.922852,4349.615234,4315.769043,4295.641113,4325.897461,4299.230957,4535.641113,4380.256348,4411.922852,4460.384766
4354.615234,4298.205078,4338.461426,4361.794922,4442.05127,4355.128418,4325.897461,4306.922852,4336.410156,4312.563965,4539.487305,4391.410156,4425.641113,4472.179688
4369.230957,4309.871582,4351.410156,4370.769043,4448.846191,4362.179688,4335.256348,4325.512695,4351.025879,4321.410156,4546.666504,4406.794922,4444.230957,4489.358887
4368.077148,4317.307617,4350.512695,4375.256348,4448.974121,4357.307617,4329.871582,4324.487305,4351.538574,4316.410156,4543.205078,4402.05127,4442.307617,4491.025879
4362.94873,4318.846191,4341.410156,4371.153809,4445.769043,4351.410156,4322.820313,4309.743652,4339.615234,4312.436035,4542.05127,4387.179688,4429.230957,4480
4359.230957,4301.666504,4337.05127,4359.102539,4444.615234,4358.077148,4327.820313,4314.358887,4338.205078,4309.743652,4539.102539,4390.384766,4407.05127,4471.538574
4356.153809,4292.05127,4342.05127,4359.487305,4445.256348,4365.128418,4333.461426,4328.974121,4348.205078,4310.128418,4526.025879,4404.743652,4399.102539,4472.94873
4358.077148,4310,4340,4370.512695,4444.743652,4358.077148,4327.05127,4321.410156,4347.94873,4313.333496,4526.538574,4401.025879,4428.461426,4474.615234
4353.717773,4308.846191,4327.692383,4366.794922,4443.333496,4353.077148,4322.307617,4313.974121,4342.820313,4310.641113,4543.974121,4388.077148,4447.820313,4471.410156
4343.846191,4276.282227,4325.641113,4353.717773,4445.128418,4358.717773,4328.717773,4325.897461,4350.384766,4313.717773,4553.717773,4390.384766,4445,4469.230957
4342.94873,4257.05127,4332.307617,4349.230957,4442.563965,4358.077148,4326.666504,4325.128418,4354.358887,4321.922852,4556.025879,4397.05127,4456.410156,4470.769043
4349.102539,4261.410156,4335,4349.615234,4435.512695,4352.179688,4320.256348,4313.717773,4348.077148,4321.410156,4557.820313,4398.974121,4463.333496,4475.641113
4354.615234,4264.487305,4338.205078,4351.538574,4437.307617,4353.333496,4322.94873,4317.94873,4349.487305,4321.538574,4553.333496,4402.436035,4451.410156,4479.615234
4354.487305,4265.384766,4339.871582,4349.871582,4439.102539,4356.410156,4324.871582,4328.205078,4357.307617,4327.307617,4557.692383,4402.436035,4452.94873,4480.384766
4344.358887,4259.871582,4330.128418,4342.820313,4430.128418,4352.820313,4321.922852,4327.692383,4355.641113,4320,4554.358887,4391.794922,4459.487305,4471.282227
4339.102539,4252.179688,4323.717773,4340.384766,4424.102539,4348.717773,4323.333496,4322.692383,4349.358887,4309.871582,4538.846191,4382.179688,4446.153809,4463.077148
4342.94873,4252.820313,4328.205078,4339.615234,4428.846191,4354.230957,4331.282227,4326.666504,4350.512695,4316.025879,4542.692383,4388.333496,4428.846191,4464.871582
4338.717773,4251.410156,4328.846191,4333.846191,4430.384766,4358.461426,4336.282227,4334.871582,4352.820313,4314.487305,4546.153809,4397.692383,4422.563965,4463.846191
4336.794922,4249.871582,4327.436035,4331.922852,4427.05127,4356.538574,4340.384766,4338.717773,4351.282227,4306.410156,4542.820313,4401.538574,4434.615234,4463.461426
4347.692383,4260.128418,4335.512695,4341.153809,4434.102539,4361.538574,4348.974121,4342.820313,4358.846191,4321.410156,4555.897461,4411.922852,4452.179688,4475
4355.128418,4269.230957,4347.563965,4353.846191,4443.974121,4369.743652,4354.230957,4347.94873,4368.717773,4336.666504,4567.692383,4422.820313,4453.077148,4483.077148
4353.589844,4265.384766,4349.102539,4358.974121,4443.205078,4367.692383,4349.487305,4347.436035,4365.641113,4332.179688,4557.94873,4419.230957,4447.692383,4480
4347.94873,4263.974121,4340.641113,4355.769043,4434.230957,4362.94873,4338.333496,4334.615234,4354.871582,4332.436035,4549.871582,4409.615234,4445.769043,4475.384766
4345.769043,4269.487305,4337.05127,4357.05127,4430.897461,4365.641113,4331.025879,4328.333496,4354.102539,4345.897461,4554.743652,4410.512695,4443.461426,4473.333496
4350,4270,4338.333496,4362.436035,4431.666504,4368.205078,4331.410156,4332.307617,4360,4345.897461,4551.538574,4413.333496,4440.897461,4471.282227
4350.769043,4266.153809,4333.589844,4360.384766,4422.820313,4362.05127,4330.512695,4322.94873,4351.282227,4330.641113,4532.307617,4402.820313,4434.487305,4468.974121
4345.384766,4263.333496,4326.282227,4358.461426,4413.717773,4356.025879,4326.794922,4315.512695,4338.205078,4326.794922,4515.897461,4395.256348,4430.256348,4469.871582
4345.128418,4265.384766,4322.94873,4357.692383,4413.846191,4359.358887,4329.102539,4326.922852,4342.563965,4333.461426,4523.461426,4401.794922,4432.307617,4472.05127
4339.615234,4264.230957,4313.589844,4346.410156,4408.717773,4356.153809,4327.820313,4325.641113,4345.512695,4330.128418,4525.128418,4397.820313,4428.333496,4464.230957
4325.256348,4255.256348,4299.743652,4336.282227,4398.846191,4348.846191,4323.333496,4309.487305,4334.871582,4321.153809,4504.487305,4380.384766,4422.563965,4454.102539
4325.384766,4252.820313,4299.487305,4343.333496,4400.384766,4354.743652,4330.641113,4315.512695,4336.410156,4323.461426,4502.436035,4381.922852,4428.333496,4459.487305
4330,4257.307617,4302.05127,4345.512695,4401.538574,4354.743652,4331.922852,4319.871582,4340.769043,4324.102539,4512.692383,4387.94873,4427.179688,4461.025879
4318.077148,4253.205078,4294.487305,4334.358887,4395.128418,4341.666504,4318.589844,4302.05127,4327.05127,4310.128418,4498.589844,4376.538574,4413.205078,4444.230957
4310,4247.563965,4290.512695,4333.717773,4391.538574,4338.589844,4315.512695,4298.974121,4318.717773,4299.358887,4486.666504,4371.153809,4410.641113,4437.307617
4317.820313,4255,4297.820313,4341.666504,4390.128418,4342.692383,4322.563965,4309.102539,4324.230957,4303.205078,4500.641113,4377.692383,4416.282227,4449.102539
4325.769043,4263.333496,4303.205078,4343.333496,4391.666504,4340.897461,4325,4308.589844,4326.794922,4310.641113,4510.641113,4382.820313,4416.025879,4457.94873
4328.461426,4265.641113,4303.717773,4343.333496,4396.666504,4342.820313,4325.256348,4305.641113,4326.666504,4310.897461,4505.384766,4385.512695,4418.589844,4455.769043
4329.615234,4268.974121,4308.205078,4350.128418,4398.846191,4350.128418,4330,4314.102539,4332.692383,4312.94873,4507.94873,4392.820313,4428.846191,4458.717773
4328.205078,4267.692383,4311.025879,4353.846191,4398.846191,4353.077148,4337.94873,4321.666504,4338.846191,4318.717773,4512.307617,4398.717773,4429.230957,4462.820313
4324.743652,4263.077148,4305,4348.589844,4397.179688,4349.871582,4339.102539,4318.077148,4335.641113,4315.256348,4500.641113,4392.820313,4418.077148,4454.358887
4317.94873,4263.333496,4297.307617,4340.384766,4389.871582,4343.461426,4331.922852,4318.846191,4329.615234,4306.410156,4491.153809,4383.717773,4407.436035,4443.077148
4313.589844,4262.820313,4297.436035,4335,4385.128418,4342.820313,4329.743652,4326.538574,4334.487305,4308.077148,4498.077148,4383.717773,4409.487305,4444.102539
4325.384766,4263.717773,4307.436035,4342.563965,4388.461426,4346.153809,4334.230957,4330.769043,4343.333496,4316.922852,4508.461426,4393.717773,4421.153809,4456.794922
4340.641113,4269.487305,4317.179688,4354.230957,4391.538574,4343.717773,4332.436035,4329.743652,4343.333496,4321.410156,4511.922852,4407.05127,4422.692383,4464.230957
4335,4267.563965,4317.05127,4350.384766,4388.077148,4339.743652,4327.820313,4325.769043,4338.974121,4317.692383,4508.974121,4406.025879,4412.307617,4461.153809
4324.102539,4258.589844,4310.512695,4337.820313,4381.666504,4340.128418,4329.487305,4320.769043,4336.282227,4309.487305,4504.358887,4390.384766,4408.077148,4456.794922
4331.794922,4272.307617,4309.102539,4344.358887,4383.717773,4341.794922,4329.871582,4315.641113,4334.230957,4309.102539,4506.025879,4385.256348,4420.256348,4459.615234
4335,4273.077148,4309.230957,4344.102539,4385,4340.128418,4324.743652,4312.179688,4336.282227,4318.077148,4513.846191,4391.282227,4428.333496,4464.230957
4316.153809,4232.179688,4300.641113,4313.589844,4375.128418,4336.666504,4321.282227,4310.128418,4336.282227,4319.102539,4513.333496,4386.666504,4418.077148,4457.94873
4311.666504,4239.487305,4296.025879,4312.179688,4373.717773,4334.230957,4320.769043,4307.692383,4328.461426,4304.743652,4503.846191,4375.384766,4409.487305,4450.384766
4336.025879,4303.461426,4309.102539,4350.256348,4388.333496,4333.077148,4317.436035,4310,4324.487305,4294.102539,4508.205078,4377.179688,4413.205078,4456.410156
4357.692383,4334.358887,4327.05127,4370.256348,4399.743652,4335.256348,4318.846191,4318.589844,4328.077148,4299.615234,4519.487305,4389.358887,4420.384766,4475.641113
4364.102539,4338.974121,4333.974121,4369.358887,4400.769043,4338.717773,4328.974121,4323.589844,4327.692383,4300.512695,4512.820313,4396.538574,4415.897461,4486.153809
4368.077148,4365.128418,4335.512695,4379.230957,4403.077148,4340.641113,4335.128418,4322.94873,4327.307617,4293.846191,4508.717773,4397.307617,4406.410156,4484.615234
4373.589844,4385.384766,4341.153809,4393.205078,4409.743652,4345,4337.307617,4326.538574,4335.512695,4302.307617,4517.563965,4399.230957,4403.077148,4486.794922
4372.94873,4381.922852,4342.436035,4392.179688,4412.692383,4348.717773,4341.025879,4331.025879,4337.05127,4311.282227,4515.641113,4402.179688,4399.615234,4489.743652
4362.563965,4374.871582,4332.94873,4380.641113,4408.717773,4345.897461,4338.461426,4326.666504,4328.333496,4301.410156,4506.538574,4400.128418,4390.384766,4480.769043
4348.846191,4359.230957,4319.102539,4366.666504,4403.589844,4339.358887,4330.512695,4320,4326.025879,4293.461426,4503.846191,4392.94873,4384.487305,4464.743652
4343.333496,4351.282227,4313.846191,4364.230957,4400.384766,4335.256348,4327.563965,4312.307617,4326.153809,4297.820313,4497.692383,4384.615234,4385.897461,4458.717773
4344.615234,4354.743652,4315.641113,4370,4402.436035,4338.205078,4328.846191,4306.025879,4322.563965,4295.897461,4490.897461,4381.794922,4379.615234,4456.538574
4345.512695,4354.102539,4319.615234,4375,4409.743652,4342.05127,4329.871582,4316.153809,4325.512695,4292.563965,4500.128418,4390.128418,4370.512695,4455.128418
4344.743652,4352.692383,4324.487305,4370.641113,4408.461426,4337.307617,4330.256348,4331.282227,4327.563965,4297.05127,4504.615234,4396.282227,4373.077148,4459.230957
4340,4347.179688,4322.05127,4357.307617,4398.205078,4332.563965,4329.358887,4322.307617,4318.461426,4291.538574,4494.358887,4390,4373.077148,4457.563965
4335.384766,4335.256348,4314.743652,4348.461426,4394.358887,4334.230957,4329.102539,4310.641113,4314.358887,4278.717773,4486.025879,4387.692383,4363.846191,4447.436035
4337.563965,4331.922852,4316.538574,4350.128418,4397.307617,4335.256348,4330.641113,4324.487305,4321.666504,4281.153809,4491.922852,4396.282227,4365.897461,4447.820313
4346.282227,4344.743652,4326.666504,4358.717773,4404.487305,4338.461426,4332.94873,4337.820313,4326.666504,4295.256348,4507.692383,4403.205078,4379.230957,4467.05127
